subject,combo,condition,window_number,F1,F3,C3,P3,O1,F7,T3,T5,Fz,Cz,Pz,Oz,T6,T4,F8,O2,P4,C4,F4,F2,OPTO
30_01,c2,oc,1,0.9544186319510719,0.9293600133128622,0.9251267029315519,0.8786824298864805,0.9382051526492755,0.9628456296330626,0.9529122132023139,0.9295109387436706,0.88828315376654,0.972115229410183,0.9468922606879435,0.92319451268615,0.9496680300100534,0.98347154851697,0.9860421741787749,0.9085412314166684,0.9332329253589741,0.9660499075744182,0.9774361467237574,0.9912852096689008,0.7989543798821553
30_01,c2,oc,66,0.9542575568913765,0.9231622760137287,0.9165644647957067,0.8841504883238394,0.9424900603201923,0.9635618797103914,0.9551164122298066,0.9293012072960434,0.892625877842224,0.9688120018153114,0.9488233253658046,0.9222281321790811,0.9474633762367143,0.9806950133829431,0.9825441972963836,0.907190820275906,0.9309272904892653,0.9635447768765921,0.97361321399026,0.9922102305703114,0.8079531266784015
30_01,c2,oc,131,0.9574148896737595,0.9191533227955577,0.9145227928405555,0.8886382310270762,0.940893211634363,0.9641825253654525,0.9576989203308306,0.9300523809900502,0.8935132682423793,0.9665354577781657,0.9511774024423059,0.9249801150930984,0.9473091341247939,0.9780721084251079,0.9810781490162559,0.908584885546273,0.9305203729620483,0.9621373821406901,0.973180786960626,0.9923515979924946,0.8056339968641371
30_01,c2,oc,196,0.9573251983194719,0.9140507819643993,0.9094015444886351,0.883465007565926,0.934708205969249,0.965479793880985,0.9584212564711209,0.9193780109577564,0.8853750673911018,0.9643464013805811,0.9514680313440301,0.9243813188987378,0.950145669921344,0.977186795203899,0.981418338389068,0.9128345231094463,0.9306593488688231,0.9617014713363323,0.9702423519811726,0.9920085277756541,0.8177540572550575
30_01,c2,oc,261,0.9616440293352027,0.9203291092146271,0.9151392967079643,0.8789190025911428,0.9279229593543318,0.967882530862086,0.9615057481317013,0.9154749330306209,0.8851522880824799,0.966214213511475,0.9501550438237274,0.9223897569419958,0.9480267914044773,0.9773056201203457,0.981469967331768,0.9096472857903347,0.9236945662249941,0.9640327273760962,0.9694944675224012,0.990615883226679,0.8228070698466478
30_01,c2,oc,326,0.9627896739070599,0.9163550156346634,0.9124620751971058,0.8740134538016133,0.9296599792399268,0.9685776065933918,0.9607611999711207,0.9180857523014679,0.8792122982262153,0.9633916479887216,0.9512003342213413,0.926753805168708,0.9493129721149265,0.978183349971611,0.9820025152927864,0.9107091692244301,0.9202969134204112,0.9652471070777006,0.9671229570157239,0.9914058259763333,0.8174265510223636
30_01,c2,oc,391,0.9654319510850967,0.9185827889053054,0.9162398415656804,0.8731999035952502,0.9246758963501414,0.9708871492303821,0.9608612325520595,0.919628969960989,0.8796527215278053,0.9640731509794479,0.9514634687625515,0.9254969580710518,0.9501318141230701,0.9771380145055597,0.9807929338869004,0.90973910365841,0.9185013743203811,0.9651772498277865,0.9659035035963167,0.9903837664196504,0.8152025934853513
30_01,c2,oc,456,0.9656269468429727,0.9195078581798887,0.9176126931958348,0.8734175648362135,0.9224947914641469,0.9718066952687081,0.9598580985489379,0.9200981578335371,0.8837223435906875,0.9669108177197604,0.9568668425439273,0.9223451593213138,0.9567107073013383,0.9782820813287786,0.9814369706078756,0.9132646645970969,0.9284652933157294,0.9660392010063474,0.9667199522880676,0.9915974829527384,0.7985630530724923
30_01,c2,oc,521,0.9610985800439968,0.9144932363300502,0.915377037594855,0.8775952860212556,0.9248228324930522,0.9693735939018061,0.9591417561596212,0.9247802371533878,0.8788595705445095,0.9678562595475073,0.9580945941947083,0.9277905802000873,0.959577342649644,0.9807320262404986,0.9846232573677434,0.9133727344990925,0.9236729805281914,0.9637593515644622,0.9646828970083196,0.992759381130462,0.8035339944595595
30_01,c2,oc,586,0.9632722068125883,0.9170351863942475,0.9125402716437293,0.8746106375520689,0.9241623696026009,0.9744889407452614,0.9573787949910687,0.9259160878229665,0.8823731990879375,0.9658928234911124,0.9593130619989365,0.9286843610325956,0.9648632311127026,0.982236551097664,0.9849776520515412,0.9198050830811904,0.9263554626086203,0.9665006607458173,0.9689972536317276,0.9930665496952465,0.7954177325485903
30_01,c2,oc,651,0.9583464228196266,0.9059717483746643,0.9116252915642714,0.8757499069970534,0.9236716145462939,0.9730710459861098,0.9574907336027223,0.9234679795244918,0.8813771557730572,0.9671528223400851,0.9599364210459258,0.9302829513583241,0.9666971560299048,0.9836374648680143,0.9839492744588045,0.9231507510145709,0.9262772199114776,0.965327812763856,0.9668945222906592,0.9931003397484289,0.8100656254278442
30_01,c2,oc,716,0.9570475046510123,0.9034403393912175,0.9136048603421593,0.8813737823961421,0.9307682695607086,0.9721066082504195,0.9568117189740513,0.9309882079046788,0.8803927631257017,0.9686556197934889,0.9620899687519043,0.9308817853304889,0.965473516331378,0.9813490606059335,0.9824246966970118,0.9211189750557286,0.9249551858769466,0.9647497333336544,0.9672227133905894,0.9929838937934613,0.8176732166936995
30_01,c2,oc,781,0.9578466079589157,0.8999124407769693,0.9069962222999156,0.8832082349799076,0.932395412283056,0.9719385845190501,0.9548299911697661,0.9312344908390825,0.8806171368953125,0.9665528187191555,0.9575502362404006,0.9263040426061904,0.9685071319214285,0.981060954796957,0.9791898443346778,0.9140323605866402,0.9205494547253092,0.9618313578484707,0.9629525527930267,0.9923326703361859,0.8230772514392901
30_01,c2,oc,846,0.9547088220476216,0.8968944397618726,0.9007216864804884,0.8798004404409855,0.9246045314736269,0.971094187850372,0.9510256037764137,0.9288900406001876,0.8805849755338452,0.9613106660197273,0.9518452456862111,0.9188629866470409,0.9681378736765182,0.9799489227219969,0.9775830552904913,0.9067249154467912,0.919010544742704,0.9595940896164515,0.9645011412962538,0.9924773242005241,0.8179438572867386
30_01,c2,oc,911,0.9546736619313413,0.8988671569437829,0.8949657417285486,0.8709477563378927,0.9246401464670047,0.9702454193006744,0.9510604300212614,0.9276804614946962,0.8868252599480069,0.9597934238405891,0.947913959259178,0.9208334500022014,0.9697941609866776,0.9797233485245296,0.9791870101200199,0.9035362033917392,0.916525056464103,0.9578684333549543,0.9569784460259242,0.9924518449820685,0.8191391707266705
30_01,c2,oc,976,0.9506696315050769,0.894698877347024,0.892277240206574,0.8707489022146434,0.9295297872415424,0.9646554227331282,0.9489843594413656,0.9296096365547893,0.8866477396435557,0.9602391525996417,0.9517507365377982,0.9211830409330143,0.9688323376361104,0.9807021135661073,0.9789795260892683,0.9101543184150148,0.9187955206537306,0.9590733447697856,0.9561107595890185,0.9919550397974453,0.8117375896006026
30_01,c2,oc,1041,0.9508833901904677,0.8990619518202599,0.8974114742046825,0.8650682524092593,0.9343454900147051,0.9665335832368449,0.9466110578293608,0.9290309010691957,0.8830006908752837,0.9563102583159832,0.9481098652601081,0.9186827038460059,0.9685277047693881,0.9787445984402136,0.9809147144095502,0.9120252176552938,0.9164120718220938,0.9581476265266385,0.9591175956594752,0.9912752375627913,0.8103734956140443
30_01,c2,oc,1106,0.9566725208841117,0.9000627065702453,0.9042608153720433,0.8727299239349865,0.9363832514520454,0.9669383062855861,0.9529883393597669,0.9333009591158163,0.8800547135385712,0.9585998930759076,0.9490449858315448,0.9153120358010943,0.9665383213252638,0.9802707676880621,0.9822843958707731,0.910885037509615,0.9184067850186443,0.9573392246250031,0.9583475844270783,0.9916086992981792,0.8052330048348332
30_01,c2,oc,1171,0.9586387834580632,0.8996993434797155,0.9085097796778913,0.8772843260058216,0.9443795409764585,0.9655885631279987,0.9516643533697275,0.939156219937086,0.8818861732426234,0.961235145558413,0.9529680002758576,0.9201858726280296,0.9659372790891336,0.9822796755464841,0.9832224349674004,0.9146860114818842,0.9243038174410456,0.9600954575606374,0.9617746184654464,0.9919513825492435,0.7932460839064397
30_01,c2,oc,1236,0.9588232070725948,0.8932868070564045,0.9094863661230551,0.8878313229228653,0.9544925481936076,0.9626854124397461,0.9550272605104584,0.9435078762251262,0.8810644020977614,0.9598624046829495,0.9562762499369942,0.9214475947957963,0.9726994871350416,0.9809562619627825,0.9833849974355964,0.9237622662218677,0.9330006025149705,0.9607736608220278,0.956799021399399,0.9906549259184588,0.7880626983998656
30_01,c2,oc,1301,0.958160214519076,0.8977291076788427,0.9113469879084578,0.8947798918556477,0.9571389563577725,0.9603927034498151,0.9569534096586975,0.9440364474941727,0.8822755945689965,0.9648738815128737,0.9612635620007546,0.9248666764258108,0.9761645674602772,0.9814514460440688,0.9832354082308065,0.9302371972274137,0.9368595237565105,0.9644597294624335,0.9558190606439432,0.9895547882979943,0.7757285592484172
30_01,c2,oc,1366,0.9584600666330222,0.8996942526003971,0.9059750234161753,0.8990264665705677,0.9593354085366416,0.9575051118846183,0.9535156535749759,0.9447373234664261,0.8854085950571277,0.9658791057554704,0.9594048167012292,0.9275892349800191,0.97842752739811,0.9826807287933798,0.9820047880374054,0.938787905251391,0.9382149022039651,0.9647608540868465,0.9518316494518635,0.9902156875148511,0.765572667389374
30_01,c2,oc,1431,0.960089774041999,0.9008707900069296,0.9048401460474804,0.89767104469762,0.9622822515514847,0.9562871747194458,0.9565952392897965,0.943824615695621,0.8834142525547953,0.9656308680776681,0.9581360959554232,0.9255849055317953,0.9780364350434029,0.9840604480861312,0.9824624757015769,0.9359428679806889,0.9348522424871356,0.9649718593847151,0.9525978297803882,0.9892743876046463,0.7610866448398077
30_01,c2,oc,1496,0.9597960020608619,0.9048370463236916,0.906934669527107,0.8989346570610582,0.9595176635380349,0.9553908378371034,0.9591436388887276,0.9398202682848806,0.8879297614350751,0.9648341029950254,0.9536071132992161,0.920156432126588,0.9752721860512763,0.9820038427404355,0.9792715843393461,0.9363929463891959,0.9374580303357778,0.9671673254742487,0.9493536237756496,0.9892497723532999,0.75557619107706
30_01,c2,oc,1561,0.9553014017776532,0.9008266043089438,0.9092672631779185,0.9054387685838454,0.9591209931133124,0.9511550557857752,0.962570657420379,0.9453395127522548,0.8845984265773966,0.9649233480113129,0.9567642094417561,0.9182326152644318,0.9758352026365626,0.9798102631001067,0.9800368956179294,0.9363920963176923,0.9356293886841595,0.966094323796966,0.9432965747701235,0.9895576304802238,0.7527409172868765
30_01,c2,oc,1626,0.9567090675293524,0.9087236511430885,0.9176899521997673,0.9097096196527081,0.9649374749247863,0.9477847004894064,0.9679823106575985,0.9516664182914386,0.8894609242700671,0.96902686629532,0.9609686814924002,0.9266144039866478,0.9774685990290705,0.9817381968525902,0.9826541505886193,0.9431915013527578,0.9390131793982782,0.9673308795902387,0.9473225289639862,0.9912742613297457,0.741042728307527
30_01,c2,oc,1691,0.9592834151639206,0.9065114572005512,0.9191231515229925,0.9143197389211928,0.967682554735723,0.9491179244940369,0.9723090950733501,0.9526730307176453,0.885648690045981,0.968865092906515,0.9634553756385662,0.9318041133223186,0.9778039576538335,0.982616246594926,0.9821190948685775,0.952009881190818,0.9464779301278398,0.9663959227841046,0.9470802351159028,0.9917878196481456,0.7325888751246025
30_01,c2,oc,1756,0.960502806334884,0.9122451477804344,0.9233086634442268,0.9176734664751247,0.9702961792825345,0.9465514021357765,0.9742440625511406,0.9582316841991664,0.8867702990710765,0.9726042158317388,0.970434279616593,0.9366159923085187,0.9780146070378182,0.9841117373935118,0.9832388954917312,0.9548367817057,0.9526459182969375,0.9716661293112347,0.9540710061553294,0.9910357281047436,0.7344120222531786
30_01,c2,oc,1821,0.9612109538415183,0.9174317769760227,0.9279206185494144,0.9217360607063876,0.9732881065567732,0.9493928486254362,0.9745550041866322,0.9622971835258769,0.8938580949155349,0.9765421320349414,0.973695263409006,0.9461252579812673,0.9762962024141205,0.9848746765661192,0.9852746089552445,0.9588181535972664,0.9546645585006869,0.9732211359289467,0.9546360848817513,0.9913053392829111,0.7283105144153927
30_01,c2,oc,1886,0.9616863159581012,0.9162023976966835,0.9304140640620449,0.9241105782442525,0.9747182293605988,0.9540438556639678,0.9753807607553792,0.9650495691220018,0.8991782139325702,0.9779498370854431,0.9770654005025113,0.9483357470717653,0.9764073446740863,0.9859915463492973,0.9861269058798138,0.9600074672337245,0.9573394751461366,0.9761412048948934,0.9612274764703401,0.9916042251294088,0.7313482716451845
30_01,c2,oc,1951,0.963743320636742,0.9159738925483164,0.9347566603007688,0.9292065422029623,0.9748024462353322,0.9579466326726089,0.9773769799591313,0.9618781639488858,0.9031023776463087,0.9775445488772748,0.9757690402909565,0.9503869827591518,0.9759297864620876,0.9862004237975209,0.9853534158684826,0.9560295778621133,0.9530426579441121,0.9758298966390233,0.9607628020952995,0.9922914159742718,0.7303104123645512
30_01,c2,oc,2016,0.9632728959380058,0.9114907360256856,0.933296088464971,0.9259498815454226,0.9717346666141737,0.9547332163098707,0.9749000190422775,0.9613096152827586,0.9026729912691558,0.9798708610765366,0.9723837226785825,0.9494875166880432,0.9763137866749687,0.9875098559325205,0.9858394215122478,0.9552831304200878,0.9501743360458101,0.9776214163701071,0.9596583523904451,0.9910123206349879,0.7346045799996805
30_01,c2,oc,2081,0.9601808777328448,0.9121596155109652,0.9298597489262421,0.9224706303309199,0.9702521108534433,0.9542523691490434,0.9705688638761427,0.9562011450185511,0.9032995104630746,0.9758142467296674,0.9699516457726617,0.9535132982842399,0.9766809628625777,0.9877199243054539,0.9870612151722573,0.9539772921356604,0.9492526831752839,0.977197168797531,0.9588195082155798,0.9898957659267769,0.7363643314386273
30_01,c2,oc,2146,0.9599368435066226,0.9133068207269024,0.9308024513352199,0.9234184928688981,0.9674301413698438,0.9545029245314418,0.9713108047382736,0.9521836104153475,0.9080240335735861,0.9749148728397006,0.9676681496506119,0.9505773867923737,0.9788736454123946,0.9866088223284163,0.9858880499721714,0.9542984691157073,0.9486598486443895,0.9765849288675514,0.9610764295115863,0.9883918984692949,0.7401076523578672
30_01,c2,oc,2211,0.9578167099823759,0.9175755475705363,0.9270673917332176,0.9210099487696576,0.9642825814273961,0.9530866006756388,0.9667379750839987,0.9508972371592448,0.9079793781498132,0.9732993488663481,0.9642807764529245,0.9523996380103974,0.9755861825708644,0.9863530476797757,0.9886291511744734,0.9511834078506541,0.9418986702048886,0.9746948557418633,0.9640584578831121,0.9899973937574748,0.7366003627380376
30_01,c2,oc,2276,0.959210401255766,0.913281418289672,0.9274331263435227,0.9174565979677896,0.9619291145629677,0.9523398487850923,0.9654699181203958,0.9517619768102187,0.9069590723425118,0.9766311260113935,0.9661116669457037,0.9492521372166536,0.9730889218396257,0.9896011928093266,0.9913986489881333,0.9481806536681969,0.9443208818488033,0.9732789665981588,0.9674163552826164,0.9917025983069642,0.7476310381357932
30_01,c2,oc,2341,0.9576473546755374,0.9117572886228241,0.9329228098101849,0.9239205345146135,0.9637339000935589,0.9561096643941567,0.9734642257396139,0.9572426005150203,0.9075852846649132,0.979812190337481,0.9689504682669428,0.9582555570450432,0.9736859171642455,0.9886683270461146,0.9901781952303343,0.9492019592330394,0.9408357599424367,0.9709880561959954,0.9692488165931533,0.9920521202534599,0.7601197703144201
30_01,c2,oc,2406,0.9553316384016806,0.9149444676657505,0.9353636687115612,0.9304050046540245,0.9669364819452917,0.9560415926783057,0.9750802816452632,0.9585766655916784,0.9060618138228776,0.9805907892415883,0.9703515385984928,0.9646476739575772,0.9764437128517838,0.9882879425554805,0.9900031501073194,0.9553043367644886,0.943258793901092,0.9695941161080026,0.9715596745010319,0.9916393176932593,0.766596695897242
30_01,c2,oc,2471,0.9586330468506877,0.914133958138433,0.9375739283202394,0.9326782658101781,0.9720036305572748,0.9607266167829981,0.9773583474090028,0.9553559213236719,0.9068201182620123,0.9808118237154586,0.9740475167301128,0.9680317270702229,0.9786277841371624,0.9876320404982362,0.9898642939428127,0.961293063809964,0.9452580581699859,0.9675307756174337,0.9730576680485479,0.9897944946499142,0.7633814973511195
30_01,c2,oc,2536,0.960962812560637,0.9179340246762032,0.9346199954281079,0.9300169375880316,0.9750751432764501,0.9620119385658242,0.9763211956468785,0.9556691104937842,0.9117399027125427,0.9806248027740642,0.974673803142994,0.9681890592268076,0.9801699164728764,0.9893039200278078,0.9891532932047454,0.9643229884061986,0.9467093458055225,0.9700499058786681,0.9739379590391279,0.9899915717610852,0.7656068747616418
30_01,c2,oc,2601,0.959861849806609,0.9134751314620011,0.9264418436298232,0.9235560474158426,0.9729813288816545,0.9615935201032427,0.9738170620638641,0.9507032763093514,0.9068996300446723,0.9789303743307837,0.9738389528592487,0.9641152322021657,0.9804600314450076,0.9895940970486296,0.9872379222034336,0.9618504149663836,0.9465148474449498,0.9725987765608286,0.9739384840919497,0.9886935000353896,0.7540895858166451
30_01,c2,oc,2666,0.9595996654536109,0.916957221593283,0.9242583630402487,0.9122987995516425,0.9694726554585755,0.9618265271572053,0.9689385940540346,0.9450632461276085,0.9088180296659847,0.9780281981237822,0.9730224046826811,0.962332494168642,0.97973097360304,0.9910111003075901,0.9862547224960934,0.9527518649991015,0.9423144661295447,0.9724825714074059,0.9734572269681225,0.9878878036802277,0.7506897423438358
30_01,c2,oc,2731,0.9618380629205141,0.9124555055832111,0.9225824995645963,0.9104098638710196,0.9670358494544332,0.9621467046715808,0.9665294579786641,0.9400471624251548,0.9095068280444641,0.9748011276049361,0.9709244343471017,0.9601481671174054,0.9793405217924,0.9909659803197862,0.9894174304339576,0.9513717844330988,0.9357587342530566,0.970143815397346,0.9704507139583183,0.9882364991348883,0.7435772398745558
30_01,c2,oc,2796,0.9617777983458915,0.90400104533774,0.9175486340032167,0.9077030098758272,0.966345850455224,0.9591649417020607,0.9647177932747749,0.9312790433019336,0.9003867516717979,0.9715820552636705,0.9721954897454119,0.9598762826189533,0.9833563505475095,0.9913638316150422,0.9927233798343925,0.9528271193874003,0.9331677342936987,0.9715829950123794,0.9709583345747465,0.9880827345682864,0.7501235318365075
30_01,c2,oc,2861,0.9634233900526689,0.9018488653864265,0.9173615034721406,0.9076128814817709,0.9619454988362962,0.9572368232811637,0.963866702676053,0.9281335599934043,0.8964733383995098,0.9705004398583934,0.9719000461917624,0.9594161111332491,0.9857140742911945,0.9909110551139598,0.9927433570586939,0.9533520157121517,0.931167218235238,0.9717675045723648,0.9688945312207244,0.9870519866013161,0.746023671202046
30_01,c2,oc,2926,0.963380115165502,0.9070405569264808,0.9218420994660351,0.9115752525576852,0.958299442996897,0.9573269085523146,0.9613376146176134,0.9289051122564772,0.8989831807591281,0.9725881019925713,0.9730224723352326,0.9605509628750103,0.9885376410180974,0.9903666464118703,0.9940065208522227,0.9572953516324635,0.9389131254903538,0.9705362371111911,0.9697540782241947,0.9856158649181839,0.7484998627448461
30_01,c2,oc,2991,0.9609493122357136,0.9078653695018646,0.9230718539999643,0.918363449661069,0.9558512406345016,0.9544856388506573,0.9628743113329716,0.928720941673233,0.8977209646789374,0.9730275905972311,0.9745486901641164,0.9623199721314903,0.9886890176040808,0.9894835319689255,0.9932451599647867,0.9620495598539971,0.9437295418560852,0.9649930424312166,0.9695371809465985,0.984817911776883,0.7405711967373173
30_01,c2,oc,3056,0.9567820403828939,0.9057835545772099,0.9281184503207675,0.9253713497257426,0.9572522968094117,0.9480864669660425,0.9630775441372965,0.9296232353042417,0.8964973828106164,0.9732347182453113,0.9737340007432268,0.9629770477009284,0.9872428540252001,0.9869041150316746,0.9930398657466912,0.9631821897888578,0.9461654302829227,0.9633077783010437,0.9705942429466564,0.9846746804911319,0.7411562963048987
30_01,c2,oc,3121,0.9544571834479948,0.9023159242250126,0.9261684693718623,0.9237177847248874,0.9596255880696178,0.9483100184102649,0.9648598203467769,0.9342605160414824,0.8913682999559969,0.9732159873283837,0.9752601549643012,0.9653403512765516,0.9879455723105073,0.9860295111348862,0.9936485287021071,0.9621441810167963,0.9455857505217009,0.9615634944901775,0.9697317578398071,0.9865748897551608,0.7483673769780497
30_01,c2,oc,3186,0.9537354982588865,0.9015958752786088,0.9295443272724214,0.9246444818787216,0.9600043102189048,0.9472720500368427,0.9665235757141861,0.9367637167680675,0.8879101136156261,0.9732425057807911,0.9757895009467532,0.965223124904224,0.9875733723896062,0.9874884598529213,0.9918333345150291,0.9637966067352866,0.9484285355780108,0.9649373452718759,0.9730483062346365,0.9858228262203516,0.7504402475534688
30_01,c2,oc,3251,0.9561863668070155,0.9027248034344119,0.9302301881820185,0.9259379875513681,0.9601470363092349,0.9502857745025969,0.9667229678952183,0.9395443347307444,0.8902854911968366,0.9715133675180294,0.9749151700646689,0.9660314822870939,0.9896580281092416,0.9864126653144352,0.990329693619736,0.9641784788022298,0.9467185263022867,0.9641323082432905,0.9710311932291339,0.9839524593167447,0.7520371879880159
30_01,c2,oc,3316,0.9581048238779496,0.9022849571954531,0.9260830997959126,0.9257435692906205,0.9567060227719559,0.9477661054712144,0.9616834499551913,0.9359578746586202,0.893069402602432,0.9686958188906425,0.9776429415274601,0.9604465498188854,0.9907268847314934,0.9872659818863778,0.9913832090540894,0.9638991632048366,0.951802422809955,0.967058332644308,0.9700321159619998,0.9860158914941439,0.7464224722481101
30_01,c2,oc,3381,0.9609239933128151,0.893859304832616,0.9202390726610933,0.9226889590774776,0.9549665278481275,0.9463182455163679,0.9580238287170868,0.9328659278560983,0.895187610160335,0.970759239326286,0.9798349648608201,0.9577511810901947,0.9911314518876976,0.9874439900817025,0.9908271071836428,0.9617929328111939,0.9517815405809783,0.9708259641370619,0.9687765594950113,0.9875117878423313,0.7416987522226398
30_01,c2,oc,3446,0.9610944427174766,0.891124017638146,0.916958027196306,0.9197087078857334,0.9496181602396697,0.9398303230440909,0.9543074665386202,0.9363487867707931,0.8943626736271095,0.970286238853688,0.9787650650904315,0.9560004374418702,0.9903168070902846,0.9875508807118668,0.9897121208113479,0.9563925608957482,0.9500086597462516,0.9717418845927228,0.96676890022053,0.9901833967525605,0.744935516796654
30_01,c2,oc,3511,0.9608588234944696,0.8900745581639982,0.9203913879094142,0.9165459855548509,0.9429449314228779,0.9383526324058471,0.9512348443131611,0.9272522007552182,0.8928990021221439,0.9683441872611386,0.9738063339445222,0.9519303713760912,0.9863410372749912,0.9876326835743655,0.9898992558329367,0.949472047624397,0.9472956803795483,0.9685803981833307,0.9655842901127027,0.9893253554964097,0.7467860619507184
30_01,c2,oc,3576,0.960958284951641,0.8925919000942434,0.9218996168911837,0.9191754117763212,0.9432819959372605,0.9330713620444466,0.9508080852284418,0.9290590779527546,0.8990077447026026,0.9684678478789964,0.9720432062228354,0.9523906237982697,0.9832422142504785,0.9864237041052795,0.9897999155699421,0.945282447354509,0.9444913302956089,0.9681668235663308,0.9624322792506199,0.991007541201322,0.7507314476549144
30_01,c2,oc,3641,0.9574146487845696,0.8899239377419066,0.9263614646630149,0.92651090623674,0.9423707812778246,0.9336566134642824,0.9534846689356469,0.9335575332684793,0.9011683957513472,0.970724998783476,0.9736524494402715,0.9562709458670845,0.9840063591184874,0.9868239250972282,0.988920116565065,0.9506175530847795,0.9475486803708203,0.9695665757573732,0.9631918104349301,0.9909837488866596,0.7511664787680729
30_01,c2,oc,3706,0.9541956605862618,0.8870083108672795,0.9320549446785085,0.9361456462023124,0.9455629343974072,0.9368539805715286,0.9570027902337835,0.9407435306512539,0.8974368875731723,0.973901446893909,0.9769943287361442,0.9592651374123559,0.9830489575770675,0.9867281586684139,0.9894409589136415,0.955987871001586,0.9526890365521002,0.9684364258853455,0.9664046964615655,0.9925479967250825,0.7547517978950614
30_01,c2,oc,3771,0.9527238858898343,0.8949566892292259,0.9354778113300373,0.9346963914084132,0.9440947908522478,0.9409080279476338,0.9590441921270504,0.9449581535913993,0.9022245626594456,0.9781756197259065,0.9751139611782587,0.9578691602501831,0.9810089983819086,0.987794280443844,0.9887524128400641,0.9576654477920971,0.9559589910475279,0.9677937378052489,0.9680691743926098,0.9911220716468303,0.7510150903839886
30_01,c2,oc,3836,0.9499836640550731,0.8971633462853726,0.9350774753719691,0.9365629159527626,0.9463918457837732,0.93892398639738,0.9618262640490716,0.9469579816489933,0.900019822410236,0.9783787691575834,0.9737752168994014,0.9483282923636992,0.9784275089041357,0.9850943152219116,0.9874423121037393,0.9559040026042701,0.956465193073132,0.9643695737775212,0.9704864038525466,0.9898292061165778,0.7383677757448528
30_01,c2,oc,3901,0.9512285845095946,0.8919400455064498,0.9252935305161217,0.9248542917051071,0.9471459412432524,0.940700569185346,0.9639824898316232,0.9468366149908699,0.8931736390817409,0.9735566928038868,0.969923938366937,0.9432461494497063,0.9766747308671225,0.9833103713102579,0.9865636595613043,0.9523873430857533,0.953083096137905,0.9634604240297805,0.9679051689973787,0.9887840000521821,0.7379914447682678
30_01,c2,oc,3966,0.9551246136695025,0.8948726843959368,0.9245907721621215,0.9203727238916496,0.9523985264976806,0.9473877348341374,0.9618016951709899,0.9498274861787135,0.8983322174292192,0.9732801809551387,0.9699678397065393,0.944122366166989,0.974251950563593,0.9845670008810211,0.9880622727737843,0.9442722697876093,0.94852207920259,0.9665308436902553,0.9661977901457097,0.9876799032765027,0.7355936385550822
30_01,c2,oc,4031,0.9617402666769541,0.8976584356167875,0.9216020093569811,0.9200614479640925,0.9556740617029107,0.9495882367307222,0.9606116257649415,0.9525465238964655,0.9042204452317041,0.9747742564925562,0.9728808563013525,0.9326946941113171,0.975201176776859,0.9863092861216471,0.9897295472570242,0.9425152153347488,0.9458092467986171,0.9687409450458931,0.9648923485092918,0.9881297699867361,0.7370635993973257
30_01,c2,oc,4096,0.9650500913045543,0.9005232841938073,0.9199070172176458,0.9208870936450254,0.9532679358553106,0.9526969868505688,0.959757322359457,0.9522072004743701,0.9110195517823847,0.9750631380300666,0.9716856233273317,0.9277865163766814,0.9762077419176988,0.9881181151753674,0.9920561966842747,0.9415355256854105,0.942115126944834,0.9670141811505388,0.965659392072013,0.988766493310959,0.7269402663064221
30_01,c2,oc,4161,0.967530055712125,0.8991554377090795,0.9188922604970361,0.9213536090177323,0.9532016841030891,0.9539483882449648,0.956709991462503,0.9558238117364781,0.910447651291118,0.9746213556256804,0.9701220636346013,0.9272117507502892,0.9782264394345124,0.9883844050153978,0.9940278321165245,0.942269500260429,0.9404412997362779,0.964254128932685,0.9621523758908485,0.9905270417292629,0.7232814973159571
30_01,c2,oc,4226,0.9662963780236361,0.9022943546494163,0.9249875017334884,0.9228110394654718,0.9572630600246461,0.952836475568686,0.9555335221381325,0.9545719176047492,0.9155837834930486,0.9769045804214668,0.9685723932848574,0.9282351564180849,0.9733697648630301,0.9891941358699506,0.9936326983251933,0.9439343543424512,0.9422191745233052,0.963870751481138,0.9622100337134003,0.9905116741690868,0.728761228788321
30_01,c2,oc,4291,0.9617644609211277,0.898687683692394,0.9255924500237075,0.918159911485294,0.9557652289857053,0.9480487623490178,0.9549197912588833,0.9526825881764145,0.9115122146449427,0.9743206613927822,0.9640615099709796,0.9253259150465035,0.9697263216455716,0.9859272479288599,0.9933079496378237,0.9383868720706534,0.9336746720104607,0.9595600277008911,0.9568374850887094,0.9895438023434261,0.7246245825752128
30_01,c2,oc,4356,0.9553597519679774,0.8970723863363202,0.9272718893709309,0.9172287360151397,0.955208530153264,0.9461127632833544,0.95558771509694,0.9547309642335904,0.9097735585005684,0.9712460228411224,0.9591597667082623,0.9201348695625107,0.9640725233558431,0.9831027308827942,0.9934792563983761,0.9349840074238563,0.9311305918494733,0.9560794166264146,0.9569431375108547,0.9888164110761113,0.7328980693108368
30_01,c2,oc,4421,0.9571845974383315,0.8972535527238357,0.9329651389561592,0.9208889925529075,0.958024407436504,0.9518767041049588,0.9592685643901747,0.9563759082568816,0.9062491067691739,0.9722425479585795,0.9635931463684413,0.9154074747564257,0.9656902078656637,0.98254769298223,0.991402086752932,0.9365529273667291,0.933328517455474,0.9561727745387543,0.9573035395472165,0.9898845372701965,0.7256936134772113
30_01,c2,oc,4486,0.9607990995209219,0.900177775850174,0.9359519891750369,0.9232420588053674,0.9581890960760147,0.9548857487329113,0.9631029108715574,0.9633919422492541,0.9047650439094256,0.9752246978336057,0.9715439420203865,0.9175763777305936,0.9713345410969323,0.9835090736215752,0.991927883238254,0.9404592194283508,0.9371511451036295,0.9608765703863119,0.9609011014040824,0.9896160267387322,0.7265600091859106
30_01,c2,oc,4551,0.9621250127563865,0.9017897282207896,0.9407898684401206,0.9231610846638679,0.9530159403642461,0.9600459449940506,0.9629235482857338,0.9621078327790016,0.9044385376268793,0.9730355988926107,0.9694947198174145,0.9156785492449114,0.9710162113505744,0.9832013152472668,0.9904306653136067,0.9399742321627163,0.9356880963762403,0.9594632557569347,0.9651699785362812,0.9873642906685062,0.7327970042321188
30_01,c2,oc,4616,0.9644156479096379,0.9093372389887524,0.9416789494344181,0.9222904121854496,0.9538818888561581,0.9616213035630171,0.9610671155554784,0.9614338582381705,0.9055243824801923,0.9738873848860884,0.968052665682402,0.9144015698086548,0.9729940772213004,0.9812077088980525,0.9894605297949939,0.935547837998403,0.9343028852129974,0.9639488530887674,0.9675896887123118,0.9861367525418462,0.742993995567118
30_01,c2,oc,4681,0.9669745141808964,0.9127270385732179,0.9382690670988232,0.9159427682294363,0.9510966455253278,0.9604861115611646,0.9617277906176721,0.9602107212568406,0.9122854009499797,0.9727472916676815,0.9659923155265928,0.9163438404028015,0.9711031454563713,0.9828542790962358,0.9902909300719815,0.9338640304529188,0.9313983108494831,0.9663653106025984,0.9675481910082977,0.9853859977741866,0.7453319361971004
30_01,c2,oc,4746,0.9710187464092171,0.9163329573750554,0.9403729853348425,0.9236154794819522,0.9541077379432991,0.9597360776407905,0.9627028547570653,0.9647087099276809,0.9111473033862104,0.9714031035824079,0.968130196106953,0.9158453337602828,0.972025920707596,0.9817401456796291,0.991626441510316,0.9303577100369411,0.9296309976799167,0.96532904929803,0.9666499326115214,0.9859531088242581,0.7467445346924226
30_01,c2,oc,4811,0.9705677055704077,0.914267638550708,0.9433792252176553,0.9229088748410066,0.9515827903425677,0.9583498729979362,0.9590575910205353,0.9568282618839615,0.9100526343505833,0.9719811960357725,0.9670956482053238,0.9227290234307347,0.9713999214931801,0.983493960137602,0.9926261841249407,0.9334804153880043,0.9292214681217942,0.9658766034585435,0.9669199639458097,0.9876541327307464,0.7630622902293069
30_01,c2,oc,4876,0.969853155699553,0.9184570180231622,0.9507807185078166,0.9281942637567036,0.9514178022492893,0.9553099540061734,0.9589595562333316,0.9587531937767404,0.9163854485430751,0.9781345614677934,0.9708585425979548,0.9351347464267977,0.9731642518298831,0.9855088599238601,0.9932165536237014,0.9417797032836303,0.9324055889118618,0.9671787260631013,0.9688888601390717,0.9871280330483321,0.7634141952882182
30_01,c2,oc,4941,0.9691546706028402,0.9170962835327989,0.9493948210591417,0.9282300917951359,0.9415475579718454,0.9512907098576205,0.9621981504153565,0.9572381324843979,0.9150707592983809,0.9798016595772466,0.9694281289030062,0.9370381741983371,0.9746901982202953,0.9856021278487824,0.994270936540775,0.9434055343293045,0.9351786024232451,0.9671852461301494,0.971562885017501,0.9867196870339787,0.759115269026367
30_01,c2,oc,5006,0.9650320741371029,0.9154284828769046,0.9521011307413778,0.9261886588618096,0.9407985355399836,0.9491186960330997,0.9636512510048404,0.9560279235346523,0.909473393974322,0.9798873366974753,0.967996231280763,0.9445711787279019,0.9736306240253235,0.985652720118648,0.9923978280671649,0.9461022826989083,0.939757143606682,0.9628237406988394,0.9680747649048355,0.9864751000526945,0.7661862480871172
30_01,c2,oc,5071,0.9608015730683982,0.9142261387720285,0.9536591101029105,0.9247036347452974,0.9405463113733482,0.9463546433968095,0.9596311763824348,0.954558825812617,0.9078058439787847,0.9771610809514605,0.9674461446946452,0.9503006530217402,0.9717214917045518,0.984115460686815,0.9891372935987716,0.9447108745859029,0.9397574846402196,0.9645731850564006,0.9682708996378697,0.9856632166883708,0.7726935857531831
30_01,c2,oc,5136,0.9579182082285923,0.9135837196989175,0.9521596336315657,0.9182669022282849,0.9463712981215474,0.9460549931769542,0.9594460785813244,0.9471254986446965,0.9078405268625819,0.9741045367329335,0.967038557794568,0.9497009469993474,0.9694872296546527,0.9806157971836833,0.9858874643401214,0.9389049884788987,0.9382072661013691,0.9643153149621498,0.9669674095893285,0.9856474475881526,0.7805814029573513
30_01,c2,oc,5201,0.9613927255752013,0.908806687402538,0.9479358385117846,0.9139339457258426,0.9455339036213773,0.9492601805617832,0.9557862825308439,0.946404354906383,0.8994487682078978,0.9708901610022888,0.9664571704110745,0.948784448871433,0.9701783536737473,0.9790493306564434,0.9864977437000657,0.9324551983843671,0.9346439475736591,0.963914743287971,0.9659750663333166,0.9857770986399867,0.7785071665386529
30_01,c2,oc,5266,0.9642246028718711,0.9119531271204517,0.9469391260098606,0.9131945809637441,0.9523323831252487,0.9508542546523306,0.955767335575947,0.9520518536173347,0.8971991506491762,0.9726767027452689,0.9672188471525148,0.9500332969142813,0.9703896271337702,0.9817558970049409,0.9887461660938542,0.9373915243646822,0.9410794544603611,0.9668662403305942,0.9690106089015579,0.987652747051621,0.7901786038339033
30_01,c2,oc,5331,0.9692076217745488,0.92142867384831,0.9482362274182518,0.9145206127699064,0.9524829859664318,0.9544309718933209,0.9504349470211695,0.9517203485645229,0.9036508222505908,0.9746192204614527,0.9707746863558999,0.9518655443465328,0.9767007423093552,0.984744458587252,0.9903315677613279,0.9479444747138691,0.9452064023479604,0.9712718251054165,0.9724656503802102,0.9864417441549579,0.7864312711874999
30_01,c2,oc,5396,0.9670826076433554,0.9230806373339497,0.94679615168055,0.9117534158066983,0.9503341382979913,0.9535792537075145,0.9505497714101908,0.951769600582633,0.9094675243611567,0.9756165213311926,0.969260928183727,0.9573093647588778,0.9793439223826865,0.9867297106040808,0.9918718787994808,0.9460682982722015,0.9415160224869229,0.96809748303893,0.9715068352248757,0.9871358275485027,0.7913263792926317
30_01,c2,oc,5461,0.9647025431325718,0.9196124193821996,0.9467355190421769,0.9116729171184732,0.9524315795769952,0.9525246933917468,0.9473456136611381,0.9506581990933083,0.9107942910563752,0.9762846500515954,0.967474334228822,0.9572171185826177,0.9797593185168618,0.9869323155764826,0.9935622028542731,0.949090708537559,0.9406860610513263,0.9663118205519025,0.9703588046672658,0.9884091856482523,0.79187281324399
30_01,c2,oc,5526,0.9623105414431812,0.9178184051361382,0.946016193279732,0.9173562790195368,0.958671528318451,0.952406786578508,0.9517523614343812,0.9509583139471123,0.9086636918675809,0.9784774607450343,0.9706529698832302,0.9585122237217376,0.981886398278993,0.986805270732944,0.9926836142067614,0.9578746911874927,0.9462926250383336,0.9677823129167931,0.9699220925772831,0.9889468469528088,0.7858175868405917
30_01,c2,oc,5591,0.9590754722924315,0.9089053238139821,0.9446852244542725,0.9175450141740303,0.9489056916942283,0.9527777034736027,0.9564882305465731,0.9516329955747367,0.9076405642642339,0.9766295959067235,0.973357168691313,0.95729867371674,0.9820661522179562,0.9847462922330896,0.9916610993230875,0.9621301466789899,0.9498515835910162,0.9631087307924034,0.9671468714627414,0.9876362592217609,0.7799592192486118
30_01,c2,oc,5656,0.95782870763169,0.9059590797171466,0.9420236489395778,0.9211695242561245,0.9484182567582371,0.95750922451868,0.9578997606597153,0.9496728861389043,0.8999572753829144,0.9760780863485713,0.9736355430377813,0.9520941860141969,0.9806887943246159,0.9825291406250015,0.9898600733121051,0.9575876686191552,0.9503241496141649,0.9619534329363965,0.9661311841121225,0.9869840524196568,0.7911802511148258
30_01,c2,oc,5721,0.9594459662184708,0.9003864233963975,0.9370460486957548,0.917673320867374,0.9496701782743937,0.9587275466918861,0.9580959739342854,0.9423989782827265,0.9003520283414163,0.9773891307346307,0.972372225804282,0.9508665976988905,0.981373984930568,0.980653787195432,0.9874929130628183,0.9550108382766759,0.9517211423575438,0.9643733189836661,0.9656995405481317,0.9872258846432801,0.791209602465559
30_01,c2,oc,5786,0.9603054954161884,0.9048669411263397,0.9340158157899254,0.9205780787885788,0.9544710398511527,0.963662371023775,0.9597238739121567,0.9496760039089526,0.9028149341425078,0.9795147309457837,0.9713951303882996,0.949400957434493,0.9812977027062563,0.9813132159713771,0.9853319650052023,0.9536823005105799,0.9544858763199372,0.9679624429730304,0.9633957423856349,0.9853474077905072,0.7855892640813904
30_01,c2,oc,5851,0.9626617593593085,0.900100960881951,0.9281756442510734,0.9207399686764124,0.9524105414719334,0.9636922332611323,0.958045137073891,0.9516293946160855,0.8949979342272166,0.9767743942808218,0.970160841785063,0.9379483897634648,0.977346067450972,0.981301313268278,0.9831133263347342,0.9449987378679214,0.9521908511270807,0.9653507009113177,0.9601466080801575,0.9829558363442281,0.7799448580418598
30_01,c2,oc,5916,0.9599664493096184,0.8995832277933901,0.9308725872015247,0.9206977790659783,0.9545664634557537,0.962537442495042,0.9571295335694925,0.9497797241497423,0.8899282838688042,0.9745227486616378,0.9696523960346661,0.9313751177680153,0.9731707643087193,0.9828383888486311,0.9836201214838745,0.9372335439963939,0.9515560176217704,0.9666006261634089,0.9577657993490094,0.9830909451603773,0.7895432103987156
30_01,c2,oc,5981,0.958523760735326,0.8995754094458105,0.9264013895512048,0.9159763742200732,0.9507653286293564,0.9631820957140299,0.9526755262430024,0.9472708884723562,0.8894961304965503,0.9729129534745542,0.9671375684080497,0.9259797673609551,0.9699558091494863,0.981686156528776,0.983825170007151,0.9324745110048267,0.9467980719125093,0.9642298923445088,0.9582236970850612,0.9856438562052918,0.7956142423921576
30_01,c2,oc,6046,0.9554271150245892,0.8987500865398842,0.923043480955459,0.9107004341021193,0.9516437195178296,0.9623353096558207,0.957337683608117,0.9461981697687781,0.8870592756443024,0.9732393156354116,0.962659512934197,0.9205341152936866,0.966794658401138,0.9790733322986533,0.9851303946855997,0.9282471353975986,0.9443483400243895,0.9586632902772392,0.9556102583847753,0.9869131991525236,0.794242316909589
30_01,c2,oc,6111,0.9559527520748233,0.89477276003774,0.9231839937817943,0.910211881315739,0.9479202191336403,0.9618158698247217,0.9601804059158379,0.9478790352458879,0.8913527424507689,0.9746831448918069,0.9595413984505243,0.9165397440680253,0.9624506259098118,0.9778127573438428,0.9850678410832281,0.9276966785775596,0.9441071197915026,0.9565369982782722,0.9552898895560111,0.9869533930956857,0.7943775576759874
30_01,c2,oc,6176,0.9521637226742115,0.898995294939286,0.9250098766827529,0.9100323759595664,0.9481157504805238,0.9620970797793535,0.964152358138158,0.9504280467215759,0.8947225311628956,0.9749374155398878,0.9568803618669939,0.9159716694865744,0.962792952021198,0.9767996901490436,0.9830134508212693,0.926269559080928,0.9460497681202608,0.957073604555253,0.9598851224990106,0.9867904151063908,0.7933589385685177
30_01,c2,oc,6241,0.9519168803750387,0.9005414611508027,0.9256566508714106,0.9094182020655713,0.944977667241556,0.9620714618405068,0.9677757162884486,0.9467056269977585,0.9057368590976371,0.9751742198645534,0.9603450187834167,0.9113802115828913,0.961461325059602,0.9764918494958842,0.9793072486641442,0.9213192879476632,0.9452950984755534,0.9574620950531595,0.9591284234816783,0.986894315086529,0.787531408569307
30_01,c2,oc,6306,0.9508348353950048,0.9009966404423522,0.9228072129663494,0.91211996773028,0.9488039146641389,0.9633216965041385,0.973600832828764,0.9480904541566596,0.8989502143217502,0.9749253000528677,0.9593292013572667,0.9115705044149377,0.9581972618376828,0.9755138153270954,0.9764834292560182,0.918481700152539,0.9475302978476193,0.9543058743773363,0.9564973422587422,0.9878740308423214,0.7918655969620604
30_01,c2,oc,6371,0.953331321346544,0.9021612319289236,0.9219701800983992,0.9118266879430051,0.9497129051449774,0.9660351675474733,0.971984456424171,0.9474159639145393,0.8883986463664459,0.9732116538359615,0.9587341945764931,0.9038875957423868,0.9541440478985111,0.974564481863508,0.9738303155072618,0.9154889392319516,0.9468526651649288,0.9569822250261685,0.958084753069164,0.9853947950574448,0.7937577135694187
30_01,c2,oc,6436,0.9535475908350114,0.9040543395990811,0.9191760260065523,0.9106417090826442,0.9490023745595013,0.9635783018413063,0.9679336378921898,0.9430095175754625,0.8869700562236271,0.9701785271677879,0.9583991701185408,0.9047932720942826,0.9491529236302306,0.9728489161811618,0.9727051363400517,0.9118594719753349,0.9428326935313063,0.9594415006982578,0.9601712147997926,0.9832767398034301,0.8006572217707839
30_01,c2,oc,6501,0.9580948017131974,0.906218002784456,0.9163187068359462,0.900794335137085,0.9462186539083025,0.9614626336062736,0.9643425983661376,0.9428437025933643,0.8910217356398715,0.9680736905159569,0.9555869136099199,0.90308698055139,0.9435071688433714,0.9732703850395833,0.9740563678932161,0.8985595779238534,0.9373829624696236,0.9604532079064746,0.9587968687248815,0.9829865359149871,0.8064508575476499
30_01,c2,oc,6566,0.9602772100591991,0.9111385848047233,0.9154375096747805,0.9035699730051888,0.9522425945680881,0.9640777459104231,0.9637518610695595,0.9430029228904606,0.8932293822479146,0.9693836277615482,0.9549886799093235,0.9019950010556068,0.9422191388523734,0.9779966569333363,0.9782861027835488,0.8908852212792079,0.935353871811044,0.959923213565218,0.9587096852933842,0.9851561108254665,0.8109371158450974
30_01,c2,oc,6631,0.9578883646879989,0.9125722870735513,0.9180890772530524,0.8982028452896251,0.949358895311559,0.9614026163222357,0.9636015971851186,0.9411004372369282,0.8983255909513832,0.9685757324958555,0.9537818239870446,0.9103057288752432,0.9454764573873632,0.9772803404585102,0.9790491611284314,0.8863559897624342,0.931984096183604,0.9564334834685515,0.9557326878718199,0.9847141385349039,0.8077272249816275
30_01,c2,oc,6696,0.9552202673298693,0.914923366884488,0.9200577549080161,0.8978554820918907,0.9414680999270615,0.9626232361204594,0.9603539133353545,0.9422204835201838,0.8962149671373005,0.9688597722029014,0.9544987510580553,0.9087035558077274,0.9393759709174465,0.976895401259805,0.9775189877397118,0.8851203716553592,0.9275417555168679,0.9510771975116563,0.9575913734751378,0.9841099258201089,0.806177106349882
30_01,c2,oc,6761,0.9535056040621366,0.912478181107564,0.9205062884077743,0.8917797730504852,0.9414833070015949,0.9611079818813331,0.9607509075820003,0.9418532800098446,0.8984286449642758,0.9637899797019884,0.9495968985457325,0.9064659189147587,0.9346409228403004,0.9767074377688213,0.9782206576920964,0.8784733975164303,0.9184403051068927,0.9482759846497543,0.9571718419206848,0.9834617834794855,0.8156694399228903
30_01,c2,oc,6826,0.9505530860459633,0.915067694414469,0.92138842708515,0.8904151124762544,0.9401494876630431,0.9598931447366252,0.9615341827582475,0.9342529504802162,0.8999757146652498,0.9621919260679163,0.9486129146688701,0.9050053090799449,0.9323579062435005,0.9745524560360149,0.9770627950744665,0.876564435358781,0.9202218516029826,0.9440949318662354,0.953010084902064,0.981960314714229,0.820075963551174
30_01,c2,oc,6891,0.9509959360909472,0.9126493684419628,0.914132155259672,0.8867971396009703,0.9406671226765431,0.9609795016084369,0.9584368287905272,0.9351274356722002,0.89907249147878,0.9567846347759466,0.9473367700029608,0.9065193086976062,0.9298030735846864,0.9701123953235273,0.9757903749493885,0.8787719992791415,0.9155557992781247,0.93951253698083,0.9508676008223038,0.9808196504093522,0.8200852047839887
30_01,c2,oc,6956,0.9503999755486054,0.9123093541800114,0.9146003669590012,0.8939844617506575,0.9408717824886387,0.9618341577570625,0.9585508822490812,0.9359369673687814,0.8983972464349691,0.9587196819158691,0.9506869856762658,0.9097533120591214,0.9300229497495122,0.9696253314846546,0.9760221543854859,0.877567686535755,0.9160959873540501,0.9435762821551682,0.9507483534939299,0.9801423174430334,0.8116384859223397
30_01,c2,oc,7021,0.954290508572903,0.9115083083164516,0.9164962350473647,0.8958988478536657,0.9395823376507441,0.9618041856133136,0.9546194484848061,0.9359869839441352,0.8952129589415722,0.9574138290295107,0.9515813495182155,0.9059518895238147,0.9272809417346903,0.9715632374822426,0.9753050418832641,0.8779935639463456,0.9186897717778985,0.9454648922945008,0.9491885677746549,0.9788513375099588,0.8117810788848138
30_01,c2,oc,7086,0.9540855982745965,0.9177992825630379,0.9167535376662515,0.8939036167569857,0.9335378906307801,0.9602302225822335,0.9489565943382774,0.9329516736665237,0.8939326908865153,0.9586913192879137,0.953482212426744,0.9087119689881488,0.929085212471245,0.9745438975507135,0.9792897734370272,0.8773739335031362,0.918584000726345,0.9489451586715614,0.9514585567371242,0.9803261578729641,0.8088133583061565
30_01,c2,oc,7151,0.9553707715825678,0.9130522625826112,0.9179250322310675,0.8929904903152223,0.9265976449508327,0.95740342626069,0.9434400312467407,0.9306824245592875,0.8885532775764051,0.958129544630066,0.9529763668743024,0.9028731414186602,0.922866500022778,0.9747932044914783,0.9798393374384995,0.8720147948235757,0.9149093318643378,0.9455392878064831,0.944765053217739,0.9822494441252344,0.811458878484263
30_01,c2,oc,7216,0.9520084890377888,0.9099651825893583,0.9151441760978611,0.8888692725364659,0.9230800113502599,0.9542857496496054,0.9393789600862581,0.9278435211267774,0.877677745654272,0.9582398754398186,0.9495456682826541,0.9005750623496556,0.9178950562440997,0.9732167453111029,0.9815903460926232,0.8641516615463171,0.9105941129664488,0.9379163466185328,0.9440865828132906,0.9825713256239327,0.818712724738556
30_01,c2,oc,7281,0.9479184394362229,0.9055959774775193,0.9192549653572744,0.880332044483486,0.9175826101087303,0.9572865067102359,0.9386774931545061,0.9267723947951405,0.875798830459392,0.9597655231857192,0.9467391165376406,0.8972018204078483,0.9089444149673529,0.9727254593198875,0.9806671138942235,0.8502734985379268,0.9042204080241327,0.9346299337367141,0.9430288910077528,0.9827663937064182,0.8167608779557692
30_01,c2,oc,7346,0.9469475738449448,0.9068481087679093,0.9170502309961934,0.8830212645324115,0.9138784013610444,0.9531103471776009,0.9365511840191855,0.9206299064418693,0.8827611185908537,0.9573778429193295,0.9413886559743982,0.8966003345783268,0.9049966468985177,0.9688654092353497,0.9786012127223384,0.8446387205908716,0.9059601955591823,0.9282936473212704,0.9384075736277016,0.9833870476656477,0.818600357953465
30_01,c2,oc,7411,0.9461807315634045,0.9045096756651785,0.9146594470327718,0.8809812708692569,0.9170014662892029,0.9573167795640926,0.9406212657580388,0.9242826126787137,0.8805291196827397,0.9553106882945469,0.9394509778358774,0.8896177539103565,0.901792562950309,0.964513401541202,0.9750087930314442,0.8328661811305529,0.90388240315781,0.925008440807495,0.9308926242026109,0.9830208937919601,0.8114486193201754
30_01,c2,oc,7476,0.9443871028064564,0.9019527623741813,0.9109105435640464,0.8754301727586592,0.9142237518358727,0.9587323356538404,0.9404537003521851,0.9270079995189678,0.8754622183008234,0.9545761925288659,0.9350406525341098,0.8817660332193993,0.8976578859530748,0.9626760541780227,0.9763655183761487,0.826275222208669,0.9015354863845062,0.9228692869818469,0.929157391470733,0.9842825387835422,0.8143911335861066
30_01,c2,oc,7541,0.9468200800196069,0.9006285941736719,0.906212986432099,0.8669408747742134,0.910230204446639,0.9527143106300007,0.9401365111514552,0.9262881772469465,0.8750112555985796,0.9486800761872758,0.9254856868507297,0.8746211848380315,0.8921658353237083,0.9618828246998986,0.9743147050280049,0.8164183833088562,0.8911321112986526,0.9238741513102544,0.9254915063028432,0.9838414492371662,0.8097152924785176
30_01,c2,oc,7606,0.952486673197633,0.8987320219982128,0.9087515038379752,0.872179774189339,0.9129637507834043,0.9505403711411746,0.938384502865455,0.927120759980154,0.8738751783153351,0.9467180574651769,0.9270441501908514,0.8569067748515832,0.8967341733162337,0.9659271053692959,0.9755900732438811,0.820961385666066,0.9014548449935185,0.9316032634028013,0.926828312598004,0.9845684969409877,0.8100230794973645
30_01,c2,oc,7671,0.9550273465290894,0.9017541657112369,0.9075365076453199,0.8727043095877786,0.9158459888676298,0.9496457418756494,0.9402140447461166,0.9274804547325114,0.8790050638514463,0.9473963010607012,0.9293793724895125,0.8616167427944936,0.9048617799401931,0.9689155210987288,0.9784373634468536,0.8312343883668206,0.9118140910611526,0.9408559604645864,0.9260167814101727,0.9847853595901302,0.8139514887757022
30_01,c2,oc,7736,0.9518085491857208,0.895955164374973,0.9104541383501611,0.8782319927377404,0.9176391735223958,0.9505035752144166,0.9409312676146041,0.9323862057038285,0.8789905270373796,0.9537357445325271,0.9390910854653137,0.8720308699880699,0.9180463900764605,0.9708308351992526,0.9820687353987236,0.8434818101694471,0.9146512271184262,0.9411258510717079,0.9263418889411404,0.9871153542647507,0.817434278386008
30_01,c2,oc,7801,0.955947745214816,0.8989816947927635,0.9151203211078838,0.883942410424605,0.9233830251120798,0.9538604945849367,0.9470203541692467,0.9352248460665119,0.8824306549679668,0.9618230113135456,0.9479231126108136,0.8866793905509774,0.9293104128358879,0.9756655483510634,0.9852990831109809,0.854317868820097,0.9157567415234386,0.9459850662683708,0.9391926179665905,0.987546721514572,0.8198460678249494
30_01,c2,oc,7866,0.9599889113138101,0.8997932972164421,0.9156510096657489,0.8874556034618887,0.9278923431036696,0.9588508840085274,0.951571979568096,0.9414701363068951,0.8853638376211358,0.9683649182999309,0.9499993538989124,0.8999741365341932,0.9370611538896961,0.9797188949280988,0.9870816778809537,0.8670655409013809,0.9202541057773178,0.9522434738411854,0.9474633098501637,0.9883568323684231,0.8206257063336582
30_01,c2,oc,7931,0.9656892031200848,0.9109401259167983,0.920775420046692,0.8890912272898014,0.9351468310412744,0.9637450907714427,0.9580496272953238,0.9492413146683557,0.8915581054532218,0.966850610684595,0.950730984809873,0.9003705873615331,0.9452166120036024,0.9803552271238882,0.9884246028844472,0.8792378324567657,0.9227858477016032,0.9536143866920639,0.95096253671801,0.990034591534295,0.824361027859939
30_01,c2,oc,7996,0.9698098055281397,0.9219935070120587,0.9231589413937681,0.8976804089586898,0.9394311985864283,0.9703699257158448,0.9621052042794033,0.9549381955623047,0.9018182459103357,0.9703084412913829,0.9579949623792607,0.9090918544141873,0.9539486983391385,0.9811933448185867,0.9890034165584362,0.8879832809238766,0.9274034845165849,0.9577845878949959,0.9577488666473094,0.9909309802111279,0.8186626821102371
30_01,c2,oc,8061,0.969598620842824,0.9186541440776299,0.9256925792436492,0.9031443052560914,0.9435544479060154,0.9710297887639114,0.9623595150681388,0.9556489227164405,0.9032594809333643,0.970060573166873,0.9596323122931251,0.9137151917756923,0.959220968992643,0.9799252193674693,0.9889224511248553,0.8947289831136405,0.9339883877733237,0.9606396073356783,0.9591603421284834,0.9902351537862489,0.8192332090209423
30_01,c2,oc,8126,0.9696392697520908,0.9212303885777297,0.9289775944523937,0.9069976561231564,0.9501258911026266,0.9737762298544926,0.9621227462396205,0.9545691304558495,0.9056015082695964,0.9734442337592246,0.9635361970069863,0.9222952955413167,0.9645470215219056,0.982833060616955,0.9898624120505632,0.9101920985164704,0.9435368105452047,0.9654864938515306,0.96369837011636,0.9900413888563232,0.8246857056628877
30_01,c2,oc,8191,0.9706856668295343,0.9213340038770471,0.9304679799882118,0.9084105528019527,0.9508462611253563,0.9770648554831637,0.9604624616224331,0.9535040746699145,0.9049867332154147,0.9725123492090195,0.9608891990378995,0.9298059466739105,0.9676991711513289,0.9853723617175493,0.9899862442993491,0.9119871722188847,0.9465517699635616,0.9703922650282129,0.9637229367406219,0.9890865610095588,0.8244288912367037
30_01,c2,oc,8256,0.970354116445747,0.9199998186435605,0.9283083886763244,0.9085434911967394,0.9508843004653369,0.9769972952603291,0.9559998371288504,0.9520414934011263,0.9076902290543156,0.9731401357797229,0.9641848069921848,0.9375678696969184,0.9697433651477168,0.9868624682354331,0.9900881437058529,0.9138035765732969,0.9475393809912578,0.9690867670754277,0.9654468135702875,0.989334421944561,0.819982411008688
30_01,c2,oc,8321,0.9680491096111854,0.9144016693695876,0.9312214016319833,0.9052810455206768,0.9538951785078806,0.9780638527606538,0.9585726573699912,0.9520424794367871,0.9039621795109389,0.9748195212350776,0.9624227806367764,0.9395418211908614,0.9717738713307095,0.9889865040191608,0.9904877903931829,0.9178858364518684,0.9494350575719389,0.9697294838074298,0.9645786636084095,0.9890293048085943,0.8259962889366552
30_01,c2,oc,8386,0.9692685691228518,0.9143771129252529,0.927594055508101,0.9016781747990545,0.9543947812263807,0.9768564461857114,0.9573085726592137,0.9500255098380112,0.9032537159721518,0.974662590970474,0.9609204135552932,0.9393321213844142,0.9703902231421223,0.9898908823267867,0.9902422976207852,0.9193904830167375,0.9491680296759457,0.9692614222516459,0.966949028909883,0.9896734278989832,0.8208660405516978
30_01,c2,oc,8451,0.9682671675694035,0.9135558146489132,0.9269428986594944,0.9099982993759251,0.9541162473778725,0.9747229192272169,0.9582016892005449,0.9488863930061898,0.9022257250831663,0.974189900394269,0.9659326241859402,0.942816590960333,0.9737633753985474,0.9901161958733412,0.9889255399196145,0.9239853644437355,0.9497769994226755,0.9699758387963938,0.966985504721596,0.9894102009212155,0.8052496789779642
30_01,c2,oc,8516,0.9664374052944382,0.9145996842340502,0.9307891508728368,0.9143977704900496,0.9585522187206832,0.9749951879464528,0.9544353226571094,0.9507025884210852,0.8963042245718049,0.9767742009016221,0.9723940234106179,0.9447854616793002,0.9763088198545278,0.9887215256025721,0.9891064118351911,0.9310592396551063,0.9521909627219042,0.9697120400036855,0.9688915990498352,0.9893205045578352,0.8117425941613318
30_01,c2,oc,8581,0.9688631398807818,0.9166615944579581,0.9299260165546013,0.9124532713140612,0.958783939849508,0.9779443915827835,0.9517608329532043,0.9523785712988798,0.9016098973374839,0.9790430085330691,0.9747419227202793,0.9478359984371598,0.9789286882461726,0.9900862677614454,0.9895390616521677,0.9360466857690006,0.9557910094940997,0.9749093032452266,0.9721750460404804,0.9889895464328023,0.8109359552385136
30_01,c2,oc,8646,0.9685823576030377,0.9143158717751858,0.930582652366034,0.9120203616763213,0.9600464509842096,0.9768641948343502,0.9506405806310939,0.9559738324952117,0.897034630414577,0.9804369501993001,0.9760024640914248,0.949960133574288,0.9816187146514204,0.9887887287270329,0.9887015531115038,0.9366133262870049,0.9559137256800664,0.9750082063614726,0.9728468922641667,0.987288288797955,0.8158589702713991
30_01,c2,oc,8711,0.9693377003429614,0.9189748047291878,0.9275795155327681,0.9136899011146359,0.9634877243743609,0.9734319684070293,0.9467424160181754,0.9546530337610297,0.8943636786738627,0.9815865477597017,0.9759875808410496,0.9483782205032558,0.9803812356057113,0.987914835457578,0.9891948692635593,0.9352503409444208,0.9568059128092193,0.976699318566168,0.9777384189373054,0.9878377570117093,0.8066133154285834
30_01,c2,oc,8776,0.9683147668834134,0.9262292056777496,0.9238782795721168,0.9175519918314244,0.9637749905907517,0.9730254403774939,0.9468599733153426,0.9561812063374479,0.8985960376487475,0.9800416130010131,0.9744297657444275,0.9468616059290613,0.977630933383086,0.9869132806154053,0.9894729082539035,0.9369784273562329,0.9549421309641934,0.9756153604642658,0.9734227645264136,0.9880448499667834,0.8072331543637958
30_01,c2,oc,8841,0.9671586209673397,0.9292958232111701,0.9235743560414784,0.9170242867966283,0.9644146395306779,0.9705624042461406,0.9473217499007086,0.9566901662710721,0.903152118674147,0.9803935412439455,0.9713461726435662,0.9418671077384159,0.9778109350035734,0.9845884453869606,0.99059565088974,0.9356622034625834,0.9508030585400656,0.9733779788867183,0.9715853483622175,0.9876325798465339,0.7924433021484779
30_01,c2,oc,8906,0.9673311513148328,0.9210829307116091,0.9216851087044224,0.913761205456549,0.9676352021062634,0.9723245189224945,0.9467597496157633,0.955549992994079,0.9016585550864631,0.9803801501134106,0.9692756571016233,0.9447736412222855,0.9767498239022636,0.9832903281175656,0.9894794627506984,0.9319362134793203,0.948624612619679,0.9714833380142396,0.9727448887996153,0.988128482298073,0.8008333529627056
30_01,c2,oc,8971,0.9674806843361411,0.9182948343958172,0.9258375144816506,0.9113400062362359,0.9673988369764851,0.9717388119189676,0.9440830642234627,0.9548914849476042,0.9078036298432078,0.9822239281018025,0.9674955804712658,0.935103941686649,0.9762093564819221,0.9841967497959376,0.9887588438275127,0.9258180574714255,0.9537767456408139,0.9745215290468799,0.9730363382062208,0.9875615225168365,0.8091752938532536
30_01,c2,oc,9036,0.9687323893717266,0.9238043276953452,0.925101054226721,0.9098063759273105,0.9673362569795382,0.9722466588410185,0.9468662394324099,0.9574475766889717,0.9030039901365107,0.9825675058428464,0.9704644829091649,0.9327207266060915,0.9757986035495707,0.985615251758416,0.9883604628716453,0.9248754978483763,0.952964028029997,0.9725163408799751,0.9732894424929529,0.9879083594583982,0.8147584248407329
30_01,c2,oc,9101,0.9691582905305208,0.9221003225178834,0.9259707773685311,0.9097804588422082,0.9665776165722612,0.97056394953301,0.9485854386532905,0.9596381738677399,0.9026470824020696,0.9809249154385221,0.970333940905097,0.9314937684496243,0.9758032887272744,0.9849965179348374,0.9891204631139299,0.9251001260780015,0.9493716107770075,0.9724042377875849,0.9708085721404699,0.9883022725210084,0.8084626743108768
30_01,c2,oc,9166,0.968828661986344,0.9268939805000518,0.9311043487444268,0.9118908424869225,0.966965329075524,0.9627248067001714,0.9486654550905912,0.9630917980261319,0.912863602399096,0.9811701013919467,0.9713746760386904,0.9259191994371618,0.977173219940303,0.9845714671458125,0.9893001008300831,0.9308349069479012,0.9506874039002993,0.9710520277795613,0.9694543050653772,0.9878306392690466,0.7985117545598399
30_01,c2,oc,9231,0.9695235340633941,0.9302341736268627,0.9295661391031734,0.912278646173192,0.9680798311796096,0.9581111823968195,0.9486217864177455,0.9625710260466193,0.9147336734232425,0.9818857297722163,0.9674325298365389,0.9197224418791762,0.9798476446825781,0.9858259667785101,0.9899656377776441,0.9312071370307804,0.9494568185009569,0.9714531437495874,0.9702356611194255,0.9878375259620512,0.7971805450723974
30_01,c2,oc,9296,0.970847820522886,0.9292337143596853,0.9270102419130072,0.9160490786196054,0.9717518356917125,0.9526926289589491,0.9481824980184844,0.9655862975304104,0.916296811117007,0.982105773361175,0.9672474288568645,0.9159713680854051,0.9806647161726931,0.9861612184453653,0.9891071690938038,0.9304230120120047,0.947379132173664,0.970244833452764,0.9692810906295013,0.9883679203711181,0.7970656012944219
30_01,c2,oc,9361,0.9675688793649216,0.9292617440325718,0.9328331273703055,0.9191427535973358,0.9730475517878495,0.9503351805139215,0.9503251046361905,0.9696783881717462,0.9168764172249353,0.9834362042106294,0.9692749843506714,0.9141872784133512,0.9810579566773606,0.986134688550043,0.9878381588031465,0.92928511095194,0.9505483133225563,0.970898258719388,0.9725113435112398,0.9884062757459458,0.7949895664225619
30_01,c2,oc,9426,0.9697193906891719,0.9315110252492836,0.9340980567296809,0.9187432079232761,0.9774829017399185,0.9494672857896621,0.9541164949857014,0.9716937487243625,0.9186696239225358,0.9835465035909355,0.9718592469171254,0.9117002599332574,0.9821521698412907,0.9848170411322144,0.9880480774184163,0.9331213834832396,0.9562781434461315,0.9700360137775345,0.9741880604494626,0.9870282006539742,0.8080219026104459
30_01,c2,oc,9491,0.9730834876394435,0.9294613959495825,0.9361204985549365,0.9214065838793248,0.9760732874012823,0.9539241734180448,0.9573231562760554,0.9721879927258583,0.9288935157037496,0.9860839838115566,0.9693718286082169,0.914849626196457,0.9799180549601477,0.9851800876423187,0.9878748334836452,0.9291962045331006,0.9570806239803996,0.9731149391944006,0.974783848615762,0.9879943725959167,0.8016658843099279
30_01,c2,oc,9556,0.972529201722451,0.9274823398577503,0.9328525128834523,0.9184610206718671,0.9742373460032521,0.9512258505154644,0.9565369101198237,0.969910897506896,0.9288527703687048,0.9833128724288799,0.966383725063736,0.9160207541277918,0.9767688102828048,0.9814634341479653,0.9861338945622001,0.9282058700684549,0.9520983923299493,0.9674631659522305,0.9723851154717901,0.9884567733390682,0.7957964864086002
30_01,c2,oc,9621,0.9727003387223169,0.9297852177070969,0.9323441139282238,0.916950220696064,0.969692653127229,0.9537787178918457,0.953496543470804,0.9670581492404021,0.9294025170240716,0.9809430583259491,0.9657551705607549,0.9146968193852849,0.9734904661892796,0.9815622421201221,0.985336636457621,0.9296823313674599,0.951331081574473,0.9668746278767694,0.9698834865454452,0.9876671682195386,0.7821842624905146
30_01,c2,oc,9686,0.9724517115638154,0.9241043941973964,0.9262339348780835,0.9188304343648255,0.9639055141312547,0.9516915970326042,0.9486994262061298,0.9637973531585986,0.9286860153761534,0.9783778159814283,0.9626028901940716,0.9101928620896114,0.9705708189787117,0.9788951587821726,0.9842873356694185,0.9255841829684938,0.9478432798121548,0.9645693737872345,0.9622021789069957,0.9863049444740783,0.7822150926972752
30_01,c2,oc,9751,0.9694928449869422,0.914498153787264,0.9243485239600598,0.9116785711084591,0.959073828112113,0.9483892569637558,0.94441100618536,0.9614324659495663,0.9224211600405687,0.9765489956037606,0.9574090125172239,0.8979679506673784,0.9671610355895156,0.9768092609008969,0.9846268321656195,0.9194144489008825,0.9461307088718706,0.9629918010435224,0.9591231814917287,0.9877466822523338,0.7761978132584284
30_01,c2,oc,9816,0.9662291954549311,0.9109232926973576,0.9203358746028326,0.9104977916786575,0.9539478019447857,0.9446851612272116,0.9410249311041674,0.9583232852848381,0.9166654241346072,0.9771407704627652,0.9584065274702761,0.8952845520260315,0.9622577332858044,0.976988282184121,0.9861169458789087,0.9107832487022531,0.9424563229834184,0.9609301218598385,0.9569958835967308,0.9889078278954337,0.7924706552009121
30_01,c2,oc,9881,0.9614800149532534,0.9067553776441072,0.9207193585949346,0.9078852699770525,0.9483889704354538,0.936441027683752,0.9349074684940447,0.9516516237127287,0.9138968960422211,0.9766107063314606,0.9538048535697586,0.8955167965067966,0.9597016387677402,0.9769885316987181,0.984010147879608,0.9114197659408091,0.9425693211560866,0.9598484765511479,0.9539543995481503,0.9877758852068328,0.7854850897081446
30_01,c2,oc,9946,0.955837616129551,0.9019625348697297,0.9134897062382081,0.9033100711639782,0.9465037228634556,0.9345529327494659,0.9365457670398937,0.9493306230865919,0.9058895121985788,0.9700201209797726,0.9502914532445018,0.8983567338539373,0.9523761404286734,0.973584338030137,0.9818731121566656,0.9088347360300899,0.933185863257476,0.9494210091202878,0.9486767749199934,0.9866574532898085,0.7834637493999047
30_01,c2,oc,10011,0.9539991166316418,0.8980196215154295,0.9087751755096639,0.9021418284252414,0.9492496368983946,0.9420794968211226,0.9411308603498002,0.9560725736819953,0.9091131078967002,0.9670195777269106,0.9474963068325889,0.9010779468352732,0.9509713828616394,0.9727467172846165,0.9829746762145816,0.9060806757125862,0.9308035691231263,0.9500669253387317,0.9467537564971331,0.9866772142187743,0.7802484715691093
30_01,c2,oc,10076,0.9500305953850257,0.8968633901941296,0.907858305616981,0.898736771362802,0.9450618733683177,0.9465096781200708,0.9398715142114339,0.952681898128477,0.9110036958012755,0.9684839313845688,0.9421676711709341,0.8947213977223716,0.9383984550732054,0.9707044215576107,0.9804992175425974,0.8938451186386044,0.9268479692645174,0.9497125054931421,0.9446786900129563,0.9867348068290295,0.7809115254209424
30_01,c2,oc,10141,0.9494725939719619,0.8922020702226736,0.9038627652019114,0.8951292682228363,0.9403293514068243,0.9478958364056975,0.9406987655026984,0.9482982466033095,0.9014915513397886,0.9645534672814118,0.9430147680439143,0.8937389122157502,0.9288463024557185,0.9709990736969559,0.9784664820446372,0.8860710428250255,0.9264014609229837,0.950686360460883,0.9427877067129443,0.9872855321093461,0.7945954481038269
30_01,c2,oc,10206,0.9489970714873959,0.8877323114037583,0.9027286380436494,0.8933565753686913,0.9371078045210395,0.9485693000890221,0.9428388460766902,0.9470810119813771,0.8971666691302098,0.9603814736980641,0.942568464881379,0.889083360254137,0.9280102216640594,0.9684900125726401,0.9784204975026024,0.8835066972316803,0.9220987439699756,0.9513228340558131,0.9400422129619956,0.9870949596655048,0.7993808294472661
30_01,c2,oc,10271,0.9510046951173697,0.8901805641484238,0.9028647959669791,0.8925872142391181,0.9252085686154543,0.9492945414768242,0.9432910628221011,0.9416568103883814,0.8955813245173965,0.9597034190410072,0.9437149395185376,0.8853334160635217,0.920347045493008,0.9687867324133458,0.9785567407062821,0.8759743337257777,0.9213945714682861,0.95492806297795,0.937886492923429,0.9859739402260134,0.7937116808215988
30_01,c2,oc,10336,0.9562311929993053,0.8960118635599217,0.8982200807920249,0.8893427318269854,0.9120201881271659,0.9517506764373999,0.939659132629442,0.9349102199786672,0.8950505478374602,0.9548469722529734,0.942351038713213,0.8789046408825991,0.9181423729124227,0.9689371738342242,0.9815581519524191,0.8679732348909039,0.9203139804327367,0.9546805231879009,0.9329992964128564,0.9878134529467264,0.8023891319360447
30_01,c2,oc,10401,0.9543391416718136,0.8975842345864726,0.8952281700024081,0.8852683855234983,0.9043282779030304,0.9535830877042344,0.9352416133791547,0.9331004238360465,0.8975086143882729,0.9546749995455003,0.9362810378082097,0.8832330921659783,0.9232735962952059,0.9717736914794431,0.9833770140031963,0.8697861943405915,0.9129564439398136,0.9521579705315191,0.9321099339377121,0.9880197665949336,0.799770390318431
30_01,c2,oc,10466,0.9486164193919213,0.8918948225826261,0.8857320857578834,0.8810553356579572,0.9062414017723622,0.9463632391660146,0.9349779036725975,0.9355086463274033,0.882376512934396,0.9492111787889995,0.936871120843644,0.8878767567622108,0.9279111619656866,0.9686225938909329,0.9829717111127028,0.8757545283820893,0.9088842884995054,0.9451022476093223,0.9276908575026069,0.9870483448997478,0.8006797864526397
30_01,c2,oc,10531,0.9455682758146361,0.8948518777390891,0.8962570910430246,0.8903682415949837,0.9111676910090125,0.9473620998401964,0.9404070902105847,0.9434533650031197,0.8809895601637792,0.9498773316781671,0.9412798108663005,0.8907432194168903,0.936833555706063,0.973264219371394,0.9862525216700128,0.8831027403782141,0.9065456029702386,0.9459204516660118,0.9275554075715818,0.9883474732974745,0.8085543987935149
30_01,c2,oc,10596,0.945614375190347,0.8835490832193249,0.8971909616368766,0.8855775011353089,0.9162603124972696,0.9440074599511501,0.9437971124529452,0.9450561669889008,0.877755717816455,0.9477110961320615,0.9343403209523322,0.8883466208373754,0.9338260997750688,0.971584055751566,0.9879826033161851,0.8797345477113708,0.9015876298848565,0.9394452509120415,0.9286235024571291,0.9908759408876435,0.8174077132208442
30_01,c2,oc,10661,0.9460697786984964,0.8938519906698578,0.9032125961217964,0.8772183100836449,0.9207364953596096,0.9484194138754022,0.9498512811325363,0.9467080356002471,0.876171903945526,0.952889427586344,0.9384323213877935,0.8920168864979512,0.936687332807511,0.9743980908062081,0.9874055985195057,0.8886694074587543,0.9056516111781832,0.9387782641374788,0.9350305748101424,0.9914210761717773,0.822090556387593
30_01,c2,oc,10726,0.9474156968836037,0.8970741348634802,0.9049013407820056,0.8806097276313386,0.9230095582581737,0.948851440200349,0.9528691009041939,0.9484835688341062,0.8794608296704938,0.9558129698671158,0.9439688361295618,0.9004517987254644,0.9426833133856414,0.9752940562073523,0.9875464734588155,0.8935889303312978,0.9083869263665337,0.9397707536958,0.9361929919487479,0.9912361440804939,0.8317311706966327
30_01,c2,oc,10791,0.9495535329563887,0.8965513279340895,0.9084567007001083,0.8798792465948018,0.931209663812779,0.9521273216869551,0.9556402524680264,0.9534111542172248,0.8776960418113081,0.9609877048930736,0.9461407353319395,0.9077302744729588,0.9503696833403003,0.9748756233500574,0.9878153333366607,0.9005681051985103,0.9139617980482605,0.9427837996104673,0.9413662600770116,0.9915707168007469,0.8315253058725224
30_01,c2,oc,10856,0.9471255263331299,0.8967326978813995,0.911133991140184,0.8796478776891623,0.9324701901436737,0.9518299316766768,0.9579656492102997,0.9564389078231211,0.8690984187328348,0.9624957381766416,0.9486778948991985,0.911701183844492,0.9503967467711326,0.9748987550220555,0.9905709706147285,0.9004090577093503,0.9086353787680622,0.9392272990751088,0.9400364818225839,0.9912568121942494,0.827917569385033
30_01,c2,oc,10921,0.9509886826081793,0.9002629369752496,0.9080380641376203,0.8809867502991071,0.932263805552563,0.9490842849044772,0.9558433112606127,0.9521311241428695,0.8699992184738441,0.9683118118135979,0.9527452793956449,0.9099265969653186,0.9507537269423657,0.9747342241047634,0.9909392737849471,0.9006684040355851,0.9064202091502166,0.9398696520651472,0.9437331410947404,0.9915637699853866,0.8310781053225214
30_01,c2,oc,10986,0.9487159592304308,0.9012545556259314,0.906749405219205,0.8820080915678857,0.9304847267602043,0.9456830060566882,0.9547039556597189,0.9447274458944624,0.8629310449136902,0.9686671112389407,0.9527658151528297,0.9153335101169771,0.948023037797694,0.9736622974319735,0.9888309550542081,0.9011141476570931,0.906499626063774,0.9402452598869133,0.9465145772788275,0.9907281193530519,0.8305421526936916
30_01,c2,oc,11051,0.9458867997243401,0.8919249620033971,0.904958182663016,0.883099948220151,0.9354547423697281,0.9378811899374407,0.9544192375423022,0.9475585870593488,0.8525496322475331,0.9666296089605675,0.9527410893279494,0.9169427478532096,0.9536421768750861,0.9724593633368899,0.9880120839743372,0.9072308651041926,0.9050242267178826,0.9350329177154234,0.9467932862890985,0.9904410800105459,0.8293709028480796
30_01,c2,oc,11116,0.9450286184410537,0.8950319543370899,0.9071733808153599,0.8854958661931728,0.9433699268462232,0.943980463539076,0.9557820814330392,0.9534117117239042,0.8549531832123006,0.9669663904456519,0.9522108411678282,0.9228074078714378,0.9596523870843956,0.9690751447977931,0.9883332457944275,0.9135528629172984,0.9103817849166258,0.9335086782504228,0.9483995009962987,0.9897038080146154,0.8184931953298729
30_01,c2,oc,11181,0.9485431175359228,0.9009920313720278,0.9151905541995757,0.8941370699780073,0.9521218269743168,0.9468895099927631,0.9619381645048134,0.9602691350450572,0.8672157781840991,0.9663299330669941,0.957436697393224,0.9292174342215305,0.9635665048118799,0.9709058984111844,0.9879241796247757,0.9229301775443136,0.9176926559578679,0.9405816403709799,0.94990418418004,0.9905038137858508,0.8274372118463925
30_01,c2,oc,11246,0.9494687719364905,0.8987869622096004,0.9133357897547344,0.8980888496035916,0.9614004757755913,0.9495169862917044,0.9630785895582128,0.9646848208264255,0.8737757231909297,0.9647953724471714,0.9588347349182096,0.9332603552788689,0.9702830165260528,0.9710367847313478,0.9877324447334034,0.927745485228619,0.9211350092430922,0.9433072325046141,0.9559527138848174,0.9924820902806422,0.8363016989235321
30_01,c2,oc,11311,0.950711289867229,0.9016130752754049,0.919753996308659,0.9057225392611815,0.9684654414823031,0.9515278749784544,0.9682015619581892,0.9700069349363848,0.8744518054145966,0.9675410422245503,0.9632122712158155,0.9413403640773991,0.973618994010149,0.9696306550039632,0.9875487252965991,0.9345536432685749,0.925137450056785,0.9460753764078058,0.9590506722317967,0.9911042838128448,0.8373820272729859
30_01,c2,oc,11376,0.9503076659481069,0.905799253548296,0.9261471933738243,0.9113667579395529,0.9728381654404281,0.9549877049893092,0.9705330494885941,0.9698980367688049,0.8799750835733846,0.9688812481256651,0.969075056707692,0.9431003395515344,0.97382985207308,0.9682874146317122,0.9862395872075016,0.9376449379863753,0.9334878150896978,0.9459645529639192,0.9623810566719939,0.9922353530732414,0.8443935401237768
30_01,c2,oc,11441,0.9529895336315549,0.909468885717027,0.9311293112625113,0.914586724781792,0.9711096641299747,0.9582425113151507,0.9724009661564603,0.968414341897723,0.8844891256143252,0.9705047550858459,0.9712037608948981,0.9415284764755146,0.9765303828186107,0.9679840267629964,0.9848202098141029,0.9371660947219301,0.9352760190065678,0.9496631821867613,0.9611311113474816,0.9923902936606823,0.848906469531641
30_01,c2,oc,11506,0.9523051063431006,0.906588231183539,0.9298646209115897,0.9098260787257066,0.9694558086457905,0.9580727746262625,0.9694379678106931,0.9641536911737189,0.8882317576265241,0.9716646836534597,0.968977800525501,0.9370833529021183,0.9740654654575259,0.9682792916044709,0.9851996101737226,0.9335182904861422,0.938347701474704,0.9509126694553184,0.9631382496713906,0.9913626420459254,0.840918716795807
30_01,c2,oc,11571,0.9542751366654458,0.9119996910323604,0.9332626886406837,0.9112435573925388,0.9676261812400262,0.960336411415075,0.971201627631268,0.9639515161242515,0.8919372750562532,0.9743476582463454,0.973532259940517,0.9426209873083032,0.9778031093238795,0.9706154349908773,0.9839232197508,0.9370756915348367,0.9427056714181055,0.9562472036628966,0.9640837729408674,0.9892481053299835,0.8332390033313752
30_01,c2,oc,11636,0.9593827103713348,0.9148756769376964,0.9317363996359812,0.9133677145873789,0.9671222046658987,0.9602662509136031,0.9734543527571923,0.964512414017454,0.8974711317078748,0.9731085511308734,0.9727092346363883,0.9440325478414323,0.9815629854419985,0.9736317742112338,0.9852354001067717,0.9356550411829335,0.9440175011362413,0.963582853360657,0.961464791475362,0.9882161629015762,0.8256314415988153
30_01,c2,oc,11701,0.9638939382676354,0.9160461381954372,0.9313418168066512,0.9094279254744311,0.9671625867711185,0.9612730697438362,0.9710353137815908,0.9657651563791098,0.8993322500966561,0.9730221314273798,0.9720962635443453,0.940730227643652,0.9826289543666942,0.9757060669821634,0.9861759870079467,0.9405403922858745,0.9422396602734749,0.9660762402564181,0.9622515842852238,0.9875416140722133,0.816803546019329
30_01,c2,oc,11766,0.9658917375049323,0.9122113587782815,0.9321488667244755,0.9115484966244156,0.9649123634620065,0.9589301491956029,0.9689560908609888,0.9662623617484669,0.9029349207255143,0.9698949725341702,0.9711728827726974,0.9400316970586458,0.9823749692014928,0.9772841015615258,0.9879911579710225,0.942197486785061,0.9424212030586955,0.9680503886125865,0.9594317306150393,0.9871164304125907,0.809151751684635
30_01,c2,oc,11831,0.9695100156273933,0.9124024582193441,0.9320941034942463,0.9153458609350545,0.9656556193156206,0.9594464376120256,0.967307683614709,0.9681794403683973,0.909458723016484,0.9715690490323077,0.9746645586592066,0.9427178380481746,0.9842690106327477,0.9795954361446243,0.9883858980330172,0.950211369828558,0.9504113220689404,0.9710012154695429,0.962445232095328,0.9892721276703867,0.8072044937922276
30_01,c2,oc,11896,0.9667563872590588,0.9055843663682462,0.9373426444508736,0.9208507339471416,0.9648167562582546,0.9612634602769056,0.9716718953895481,0.9696631462666866,0.909602713342405,0.972966683420494,0.97455971852853,0.9473485005688858,0.9881179534347119,0.9826968611739926,0.9888492040512117,0.9520268118760853,0.9559308869240061,0.9737019513422318,0.9656529755044064,0.9889994028531888,0.8033316139557526
30_01,c2,oc,11961,0.9689375558592097,0.9088916139802766,0.9453771727270452,0.924417648999658,0.9667691848655516,0.9628541067370314,0.9730003322899943,0.9710213894993659,0.9156001586202213,0.9752250658661792,0.97555231345517,0.9472391485933743,0.9889633766725153,0.9840173017325752,0.9903836431502093,0.9552721206354648,0.9588293902473004,0.975683143143004,0.9680359956702113,0.9891839755948424,0.800466390247619
30_01,c2,oc,12026,0.9716512484451297,0.9145120216201122,0.9470907581124965,0.923840562248299,0.9681247846531856,0.9671309193437092,0.9736010526813892,0.9695052881690968,0.9214423892148694,0.9769611857633094,0.9776873817061019,0.9522384959396103,0.9903596651842391,0.9841680729288814,0.9891768065858888,0.9589118634131161,0.9637701483557374,0.9790005451821034,0.9708942517791397,0.9893843053132214,0.7963371380810302
30_01,c2,oc,12091,0.9693693819247373,0.9144068585825448,0.9433132158116209,0.9255024364618973,0.9659343787675851,0.9637897653047182,0.974769628182854,0.9683485734609018,0.9207240150345427,0.9793953537715742,0.9774446502549549,0.9515248159168482,0.9903365002510609,0.9855189027529637,0.9894999943333332,0.9570732127679658,0.963590868162783,0.9818741105947044,0.9714062508271777,0.9897520536983682,0.8173216192541692
30_01,c2,oc,12156,0.9711492568454265,0.9128641730944163,0.9439879940960156,0.9241841385928957,0.9631879242783802,0.9655023805649251,0.9763372620955718,0.9650047550662407,0.9143432899311978,0.9813524766160051,0.9748671529449684,0.9535850486682248,0.9894347565760144,0.9862778156609351,0.9891993229605043,0.9589340473925752,0.9658359375854354,0.980538836217491,0.974355942264538,0.989170037100367,0.8160374085273858
30_01,c2,oc,12221,0.9700045118204209,0.9162646027097263,0.9462253789586877,0.9276887976247323,0.9639225276358352,0.9663520126890212,0.9799247823812786,0.9654508806204374,0.9108795507219959,0.9813668977737198,0.9762669585396534,0.9573503757870323,0.9867799063251628,0.9867025110169505,0.9893300697538241,0.9577705972575546,0.9667168375895111,0.9812216037178297,0.974439316785662,0.9879693736166827,0.8171583068794935
30_01,c2,oc,12286,0.9668515466865261,0.913628690603673,0.94446116755292,0.9262593181350584,0.9607416253075866,0.9684943314791892,0.9807798194575807,0.967803693315899,0.9150756469544157,0.9812268799548107,0.9755503298212654,0.9566852779418337,0.9871965218122922,0.9863824556382361,0.9892606733213674,0.9632743331133333,0.9665046203478218,0.9813503597553692,0.9785521063931599,0.9890619838901215,0.8235988983095623
30_01,c2,oc,12351,0.9674705764700056,0.908010843006716,0.9421626372375808,0.9242862787394581,0.9601768590377835,0.9689901155139158,0.9813381507052603,0.9705398732943432,0.9163733242024863,0.9839284390053527,0.976283130005157,0.955999555263506,0.9871799896988808,0.9879101976831216,0.9896889454235489,0.9625151358680822,0.9654916998787281,0.9849801520361564,0.9790350160390281,0.9890527378523659,0.8197925178103802
30_01,c2,oc,12416,0.968528708856387,0.9067987981174672,0.942757883796131,0.9282652606629782,0.9642756203798079,0.9691779142777053,0.9849110281724018,0.9719426853709032,0.9204734347132334,0.9846388755105493,0.9759095658382876,0.957180490095229,0.9854113888235186,0.9891290336983272,0.9905670006126872,0.9663646512404427,0.9683701572140563,0.9849248560281586,0.9830598734078558,0.989692943041897,0.8216636045878728
30_01,c2,oc,12481,0.9681848580442819,0.9036706595064489,0.9436047873603542,0.9333221807795715,0.964036988395774,0.9720541853218283,0.9879336896888188,0.9719884886975724,0.9161305358340406,0.9845971055651813,0.9780850300979457,0.9560357698027132,0.9861649136053322,0.9898702054679426,0.9923844424215802,0.9698860716421817,0.9716469751762588,0.9853280404774953,0.9859297651684448,0.9889524872341522,0.8277827278119166
30_01,c2,oc,12546,0.9677341370944943,0.9054576977672992,0.946193116556895,0.936226954191868,0.9661956949156542,0.9723032608975111,0.9890043628492738,0.9720094139399273,0.9150033880695946,0.9850392791213721,0.9785287335835857,0.9570772236052825,0.9857752234516027,0.9902492598242936,0.9922687664697982,0.9718318476132056,0.9743602921606269,0.9875496514864247,0.9874234042874985,0.9885410818056447,0.8382001920538197
30_01,c2,oc,12611,0.9659148409031726,0.902081492914888,0.9477140408491256,0.9355490772721299,0.9683672466724444,0.9743600416951497,0.9872017426178781,0.9688927447590494,0.9169565539749202,0.9858921891090321,0.9797643244424405,0.9610682860103901,0.9848872193187079,0.9880667126324463,0.990996270150886,0.9749944331370282,0.9752373426110857,0.9854955922105652,0.9900321893152719,0.9887793335876904,0.8538212073935993
30_01,c2,oc,12676,0.9660855439794058,0.9061661080585713,0.9464962775080247,0.9393121196401835,0.9679499419154302,0.9746185348044866,0.9869764753764513,0.9687544247406381,0.9193098021370181,0.9850929465032611,0.979800872669765,0.9623468591942195,0.9838738989533373,0.9900531247910996,0.9903321011100986,0.9753194780855026,0.9788691310787909,0.9861177030525607,0.991782420552196,0.9893810639699331,0.8661029937549686
30_01,c2,oc,12741,0.9668826040993582,0.9144332753087949,0.9481695172067597,0.9371564862132964,0.9666183732454932,0.9745697709423441,0.9865505179543564,0.96752021616137,0.9155389583350702,0.9870318976938068,0.9818083068512203,0.9601209041863941,0.9854355260450562,0.9908014328821252,0.9899051372032608,0.9754506883297824,0.9809180753901211,0.9889567169245441,0.9936567461843299,0.9884965030363728,0.8756352538032421
30_01,c2,oc,12806,0.9676435798614893,0.9207201965011402,0.9490310772395121,0.9390214548462021,0.9674950617605079,0.9721075638973617,0.9861823169850682,0.9659059149397726,0.919545928493188,0.9874579101450985,0.9822847063111765,0.9558228400206964,0.9864916242337833,0.9928107145743997,0.9915697013503617,0.9737379910112338,0.9820913124421977,0.9897795934890102,0.9932170411334564,0.9866968569261336,0.8818396493755601
30_01,c2,oc,12871,0.9712244378038185,0.9260093669797134,0.946506133116031,0.9349762376048073,0.9656790239059699,0.9702331547787065,0.983418500055477,0.9674581367798354,0.9228171011847577,0.9843516630634622,0.9828416014323604,0.960921286859505,0.98569707040406,0.9925330755539448,0.9918594374334433,0.9787374083460479,0.9821801477876835,0.9901458950397408,0.9924635785639491,0.9846022597634396,0.8872435321577415
30_01,c2,oc,12936,0.9726244941002895,0.9205694208740998,0.9390811307364951,0.9303496474874501,0.9618162244230943,0.9664434916821097,0.9813382499739065,0.9662523078135854,0.9237769641620224,0.9824960486029732,0.9819203229123266,0.9590431902356698,0.9863754042073195,0.9943945555086361,0.9934009975416097,0.9779118525370821,0.9820825097202319,0.9894401800773881,0.9915066825937328,0.9845364134462498,0.8912152327405622
30_01,c2,oc,13001,0.9725454587296312,0.9247317612024024,0.9374685083642504,0.933787404827486,0.9564130207187764,0.9639306119272028,0.9799797293848439,0.9674633400160872,0.9259861256734103,0.9825252349542408,0.9807575186532951,0.9541659864169995,0.9882258812362841,0.9951715310538687,0.9934974877712132,0.9760886443865114,0.979160461593991,0.9901163002299599,0.9923858879345661,0.9855343916871164,0.8964616121479979
30_01,c2,oc,13066,0.9743739717944359,0.9266674055421216,0.9410673655788844,0.9330708397523262,0.9551585223321711,0.964668994317764,0.9788883229893817,0.9664529220859069,0.9304172085436865,0.981747898488684,0.9836208561966571,0.9529111496034846,0.9872170092802466,0.9957527725677849,0.993671600099457,0.9762966624064372,0.9776859752541487,0.9912928502584284,0.9928322062887501,0.9856992821217796,0.8839170180358542
30_01,c2,oc,13131,0.9739953396322842,0.9287235520063547,0.9352084547987057,0.9310322911171565,0.9528419726207588,0.9615746466321737,0.9742538512143346,0.9666862470048152,0.9276840889381944,0.981629467957238,0.984081743005617,0.9492189831006876,0.986371538540519,0.9958983036669008,0.994366536182902,0.9738969127916731,0.9727168219395849,0.9923151790641578,0.9919260097194965,0.9858243908691801,0.8814492365927424
30_01,c2,oc,13196,0.973616778159988,0.9307851773818819,0.9355540808934971,0.9304715463002321,0.9495208990608016,0.9609965524536669,0.9695744824081218,0.9642451691301057,0.9313269866178352,0.9832990410187734,0.9837622773670275,0.9409637040752441,0.9875441556677431,0.9956161364371964,0.9940759624970974,0.9738403839232909,0.9718910202168428,0.9911654527432285,0.9931699292520727,0.9866476510328609,0.879896004130966
30_01,c2,oc,13261,0.9742866100152423,0.9295752098758785,0.9340952341768102,0.9304218282598397,0.9423251265641304,0.952931029489829,0.9652648591140642,0.9544385073233742,0.9293051628668839,0.9852623601195376,0.9801234032001385,0.9359124974579633,0.9848978384222474,0.9963221380373685,0.9953167945896336,0.9657869968764148,0.9665950162681117,0.9891709265171521,0.9913907925718783,0.9853256544264621,0.8747382941953336
30_01,c2,oc,13326,0.9701224479078581,0.9306818115870837,0.9372869506448706,0.923195470735418,0.9328306090047606,0.9497225203096111,0.9639231809349633,0.9479935261635342,0.9289034475665444,0.9842379108739602,0.974791634002459,0.9314329783492513,0.9812888914449311,0.9961818808185946,0.9961546608047113,0.9602303165563888,0.9604939019607267,0.9866931741288906,0.9897401883511339,0.9854023909913485,0.8678035674026923
30_01,c2,oc,13391,0.9695141222860776,0.9281763690722359,0.9371768862115533,0.9227378329748549,0.9262923675704533,0.9473828122289009,0.9568347388078838,0.9446250136478344,0.9284757192503392,0.9848357953357807,0.9730621861389961,0.9298909147427183,0.9839520727835788,0.9956391859520434,0.996816588093652,0.9578291221763436,0.9586246349759219,0.9865356127329474,0.9884503395813085,0.9867572316136533,0.8684663860946179
30_01,c2,oc,13456,0.9692526854999699,0.9328783114506954,0.9364228032815621,0.9209303125299025,0.9261287230823178,0.9484667225675181,0.9548461973076944,0.9448302655634572,0.9291067323122842,0.98454731465218,0.9713960993141434,0.9294332170756111,0.9830548189015446,0.994426293222811,0.9953188269177253,0.9533475451485681,0.9547224534105122,0.9830729791698422,0.9865176311864738,0.9878160746772807,0.8593868905794919
30_01,c2,oc,13521,0.9664364182191344,0.9300132201794261,0.9311038130360333,0.9243150686068791,0.9228517205685801,0.9486498813342477,0.9555129826222569,0.9427157680788925,0.9293597062093518,0.9850027144461162,0.9722808604346084,0.9331714529895941,0.9817435547829124,0.993305335518893,0.9957511958588618,0.9500742794156181,0.9521105488269904,0.9811935867120511,0.985279792054734,0.9895269541134314,0.8523437981757273
30_01,c2,oc,13586,0.9629379775435419,0.9217629405286141,0.9290063530735496,0.9270414378369685,0.9193723795644124,0.9433994715553814,0.9554377766827121,0.9476866780557399,0.9242377403895635,0.9852563984513206,0.9757796144578781,0.9377093736025401,0.9812593884479902,0.992865620238402,0.996042288409346,0.9539419351819842,0.9518746347850094,0.9799493596528628,0.9827857376563078,0.9893239674800214,0.8467679492953201
30_01,c2,oc,13651,0.9579207826918021,0.9202940315803688,0.9379470115544611,0.9294276652795861,0.9254700305261319,0.945588089553573,0.9558488013131192,0.9481886735950387,0.919851777576836,0.9871829890465651,0.9750431452969245,0.9374127854676589,0.9839208161789873,0.9913917282477702,0.9964600214499004,0.9548026123078274,0.953881842717458,0.9776966134700676,0.9797583558619696,0.9891368012616496,0.8265490055678941
30_01,c2,oc,13716,0.9537982346293954,0.9138480498673548,0.9365072976119933,0.9365599139602256,0.9330127421498849,0.9476100786964874,0.9621294077888287,0.947199854800144,0.9210983255801273,0.9875407750386819,0.9757239282430261,0.940600726455461,0.9834372590413982,0.9905673022978131,0.9955723803209259,0.9588479542184062,0.9555733716624878,0.974665624333853,0.9817982633457077,0.9889634298146909,0.8245066335589881
30_01,c2,oc,13781,0.950684971011729,0.9123484061017456,0.9390877718982211,0.9413586905626673,0.9388357920445982,0.9506247923272746,0.9627886302604323,0.946205433848602,0.9144726001096067,0.9899008126947852,0.9722542964066136,0.9431723541701913,0.9812844296156658,0.9900557585346901,0.9949588472183337,0.9579680175473034,0.9541346629493898,0.9727679373030073,0.9827173353650239,0.989671606262403,0.8070780016985823
30_01,c2,oc,13846,0.9447654769815738,0.9103411692326705,0.9451573395262468,0.9425891706104277,0.943316007371886,0.955589146997951,0.9671434077484985,0.9455889023522379,0.911893365074215,0.9911303177300904,0.9708461709019862,0.9407703429346489,0.9788418595557714,0.9893373574881533,0.9943202107990343,0.9550575814820425,0.9519049013899418,0.9690692010316266,0.9815008739246581,0.9906340979116967,0.8007954738386316
30_01,c2,oc,13911,0.9425085163911313,0.9121991934926101,0.9489431159144358,0.9442217268282777,0.9499742152709728,0.9567443644258723,0.9657251675887271,0.9454655397884002,0.907016697497774,0.9912583659684321,0.9694709798601319,0.9419600330727552,0.9781812065727286,0.9854127632017773,0.9940916040663882,0.9554808898286188,0.9506881430653937,0.9651316630001998,0.978905985913905,0.9893894708831414,0.7880634799983902
30_01,c2,oc,13976,0.9392753233529406,0.9052577756066615,0.9496138966624325,0.944746885358946,0.9541793629856639,0.9534648504899546,0.9664386228693262,0.9469980388915695,0.90284855130061,0.9916504848791331,0.9739097095338272,0.946885423566649,0.9763245329425432,0.9860602589529354,0.9931851826503513,0.9603169778919992,0.9572812160682105,0.968268533742392,0.9806604156750405,0.9888363621939368,0.7759577202790126
30_01,c2,oc,14041,0.9338999394035118,0.8985679371722674,0.9445501624204872,0.9436498720534062,0.9529096294172343,0.952300334247097,0.9665816781821414,0.9443601841159168,0.896321626120197,0.9913977498346728,0.9729449516077093,0.9494447692737054,0.9793000847935913,0.9843891299299361,0.9927896393944533,0.9641248669396055,0.9593448971157955,0.9628738715928878,0.9791782020234204,0.9868537478706254,0.7739713119952863
30_01,c2,oc,14106,0.9342098988800795,0.8963327973418247,0.9435287626309004,0.9428280044639087,0.957272584028816,0.9556929158053826,0.9709676917656974,0.9438123247390927,0.9010457794645407,0.9909064783239837,0.9707765929897165,0.9517239132675654,0.980887043189875,0.985411655527123,0.9918561118942527,0.9630862293840113,0.9635873553557889,0.9631609526903104,0.978980507237024,0.9848834658938885,0.7669431494063494
30_01,c2,oc,14171,0.9364181653574265,0.8931530766778881,0.9429917712618878,0.9430152951085358,0.9556389180451301,0.9547475367305429,0.9740223389875832,0.9450145106955076,0.8953700127042229,0.9902907923199579,0.9669835755398415,0.9532204241584629,0.9773346069484683,0.9816692704303287,0.9887323204877717,0.9606728256015202,0.9622556784461109,0.9600324985929864,0.9754618250623979,0.9827033400993114,0.7594615137726353
30_01,c2,oc,14236,0.9376683685919127,0.8951041864735523,0.9421697688574602,0.9387813044615078,0.961434295083719,0.9567883538280024,0.976223149023771,0.948355910172608,0.8965668804320008,0.9867798466596567,0.9657454357175053,0.9548676911197123,0.977729956886789,0.9801894847878768,0.9877639539873265,0.9622092595362488,0.9652572632385713,0.958212842940623,0.9758640624054835,0.9791837443511064,0.7595388072020754
30_01,c2,oc,14301,0.9391463491138765,0.896508867699041,0.9421717140369346,0.9398346237006433,0.9673501316039564,0.9581788727048396,0.9786259010626774,0.9496925996123378,0.8926864575242504,0.9839582313882506,0.9642210699276317,0.9576948215797579,0.9751270584549326,0.9784174978632292,0.9837384087856926,0.9610608952270436,0.9651287897955739,0.9563953509673618,0.9729164119614429,0.9762631488862353,0.7538550087441572
30_01,c2,oc,14366,0.9396389852206638,0.8991004861898688,0.9378482946122527,0.9353532270241098,0.9708699068296026,0.9586281683884648,0.9776098973417439,0.9545261107382091,0.8907796705466424,0.9765743247633809,0.9573392807091194,0.95575420507906,0.9712178504475337,0.9780258200190055,0.981117931157143,0.9568240208356393,0.9591824927523723,0.952924679852799,0.9719565445926686,0.9743515635675501,0.7548154139953479
30_01,c2,oc,14431,0.9346724460771251,0.8861650593142055,0.9327840582347886,0.9300188347211132,0.9703656498453003,0.9566335919667754,0.9769682723791533,0.9575434051185853,0.8861521909168683,0.9734338908608735,0.9566250699518322,0.9528511758193323,0.9720806732671599,0.9779524938819473,0.9792471398346492,0.9527601297560783,0.9535248524503672,0.9513347792526876,0.9680743835313863,0.9739043947086705,0.7583886217186152
30_01,c2,oc,14496,0.9405558476807515,0.8870856260913044,0.9261628654332601,0.9224345525634362,0.9723566614809035,0.9530800505071784,0.9743283999201925,0.9614955774128279,0.8816143357807895,0.9723436651239827,0.9535694073217003,0.9503490207231403,0.972204690468051,0.9780379301747321,0.9777413344097399,0.9476530152987616,0.9506195477119713,0.9522066275820324,0.9671949392888227,0.9740133623825973,0.7623959945304274
30_01,c2,oc,14561,0.9448986769513252,0.8903684600288478,0.9244605857866064,0.9175841200847901,0.9735507907655212,0.9565661275469733,0.9758657795618855,0.9609478330161666,0.8819213308093677,0.9721009687279186,0.9518743371435299,0.9422607787272522,0.9691537937837785,0.9777661671014596,0.9772125713606346,0.9420669322053291,0.9455737094175387,0.9545158779369821,0.9695024469821958,0.9741189381728229,0.772936591041124
30_01,c2,oc,14626,0.9491814310168887,0.8945026474911287,0.9220962992300153,0.9196885893294818,0.9752400651936124,0.956695967247737,0.9729917149703858,0.959645661143318,0.8899705161344257,0.973066326390911,0.956729751723077,0.9486296238570379,0.9656794445210843,0.9796253935179421,0.9754031516364617,0.9410870125836286,0.9455418152266393,0.9586022905119796,0.9700533413122935,0.9733004422544207,0.7766349832744165
30_01,c2,oc,14691,0.9533221564124466,0.8933883698705379,0.9206100399183665,0.9091796987976517,0.9730530726055393,0.9518345060407499,0.9689749748038217,0.9595022714775698,0.8868935734990406,0.9703850880538895,0.9562231354663194,0.9491471864682772,0.9596891724078994,0.9777437591366848,0.9739745868502089,0.9333770791631373,0.940967427844875,0.9543710050195993,0.962619113019832,0.972907245869576,0.768827908206218
30_01,c2,oc,14756,0.9527177780574524,0.8888099264338075,0.9179922660181214,0.9013252261990058,0.9693886419043171,0.9461542615159168,0.9654009008847702,0.9569333571115031,0.8911895987583696,0.9680834819193597,0.9558212163023543,0.9420416961034663,0.9600580153551677,0.9770726128343512,0.9755448942733148,0.9238434098306478,0.9351263079629148,0.9538022639767376,0.9578367427558951,0.9735700658950145,0.7825262623651491
30_01,c2,oc,14821,0.9521945393580342,0.88369519646784,0.9065896883051829,0.8961859818779794,0.969137837594618,0.9364431138841999,0.9587518045651304,0.9581110705545431,0.8857786782330731,0.9653498101062972,0.9554351024039609,0.9330139756262775,0.962482888335361,0.9787789522147303,0.9773566358574222,0.9209843033156535,0.9364164527750808,0.9530751920425968,0.9549356504448542,0.9737843880748394,0.7773892873264578
30_01,c2,oc,14886,0.9544408328431612,0.8843759415780271,0.9100884388434024,0.8981480048242109,0.9666591999069863,0.93817432046342,0.9610829711246748,0.9612323397860697,0.8892572968290066,0.9682896389824284,0.9574739490324337,0.9374467248370505,0.9636730618706555,0.9817777227714104,0.9807826444327554,0.9194482749220392,0.9372986094781786,0.9576151133953429,0.9542484083774102,0.9757023224999469,0.7843058055509371
30_01,c2,oc,14951,0.9552514754837502,0.8877919576050914,0.909730315117447,0.899049788665518,0.9649602268748607,0.9392534064848985,0.9613013104125426,0.9607958562992992,0.893010352097798,0.9672072624479199,0.9563952429936718,0.9377333050120726,0.9634051878304803,0.9793286190644301,0.9809755195373117,0.913248388986773,0.9314831523566753,0.9527182158942272,0.9469185029009959,0.9775333764786305,0.7915877924703172
30_01,c2,oc,15016,0.9559342437819318,0.8894229574267247,0.9180894869213317,0.9050869215919892,0.9676027774165347,0.9395194117550207,0.9616580979914192,0.9607999106871501,0.8961681022132643,0.9669532692247862,0.9569464621334204,0.9344947837527325,0.9577265954832274,0.9779100129175755,0.981431971953468,0.9045074020684607,0.9276006764852791,0.9541583885432238,0.9437613544810146,0.9778068599584633,0.7967151746710986
30_01,c2,oc,15081,0.9541591768836143,0.8920439848390324,0.9206029325351364,0.9036063611814821,0.9663191452493064,0.9391356296471096,0.9626946264711318,0.9628570851687759,0.8949228315435683,0.9672427653337932,0.960170463161,0.9352513145597144,0.9557559116877312,0.9756303601051122,0.9822836365903292,0.9102452896866112,0.9262238599537518,0.952352212718048,0.9444757717697996,0.9794665509140498,0.797887173240681
30_01,c2,oc,15146,0.9506088189383496,0.8897742475404113,0.9210728057939989,0.9000749976627745,0.9670397909394045,0.937806628544582,0.9542335583529078,0.959481618493652,0.8951255560702943,0.9682301746592568,0.9592451503959011,0.9402452088422073,0.9598211901628078,0.9748839682477336,0.9830455610609543,0.915271458985665,0.9270878413619783,0.9520822123952947,0.9480588932472395,0.9799785552970174,0.7962547392341576
30_01,c2,oc,15211,0.9486671654090199,0.8916591696905293,0.920780720097709,0.9007918206068872,0.9683299165756545,0.9392661800329272,0.955414299027414,0.9628823812777847,0.8917522286079802,0.9688587506857259,0.9627671023051534,0.9410903282659855,0.961986381891272,0.972625911298379,0.9810866176287101,0.9129821505219654,0.9260866179510646,0.9568013708805755,0.9493570573591852,0.9838269386779208,0.7873966403461751
30_01,c2,oc,15276,0.9538923118332332,0.8939248732574886,0.9204210597904604,0.9039818559203688,0.9658820643054751,0.9392616406030806,0.9538507962341062,0.9680482896185715,0.8921209679956497,0.970483759005459,0.9672504172170828,0.9392916788946973,0.9627762473347392,0.9723149249982949,0.9825236786892741,0.9168948830474636,0.9331682945638708,0.9585113463403566,0.9491149661412258,0.9857559798485271,0.797664835381347
30_01,c2,oc,15341,0.9561427408506411,0.8976003184313499,0.9240599639802185,0.9114429132505757,0.9639513536111982,0.9400500293967157,0.9577942739932266,0.9660536336645216,0.8945073181870505,0.9784686865864829,0.9712293958622216,0.940538274749397,0.9641749062142354,0.9756472778450204,0.9840682273754212,0.9207199816532203,0.9396350436854976,0.9652383366975174,0.9503261866278057,0.9874814083279295,0.7994892807310356
30_01,c2,oc,15406,0.962423311468754,0.9050209686251743,0.9294612131190212,0.9146993872140305,0.9657835605546246,0.9418067973664267,0.9567366465797266,0.9648887660800504,0.899921823572516,0.9797077140336413,0.9705253916757451,0.9430067823280753,0.9630961642958228,0.9747386198704877,0.9837645538838359,0.9193594845322739,0.9384770091774194,0.9643541461838788,0.9489360746368211,0.9880168622310821,0.8104545439083076
30_01,c2,oc,15471,0.9599305610335088,0.9038094649828843,0.9311225358134128,0.9134010817014073,0.965389107085552,0.9439505969227205,0.9525012601186296,0.9620216328844947,0.8990623586821708,0.9771032917793312,0.9677476959049724,0.9371671181688149,0.9603218564037757,0.9722342969857845,0.984474170551153,0.9180802966595976,0.9354065647294342,0.9637860468122319,0.9491171883103595,0.9880379408586358,0.8109508246471693
30_01,c2,oc,15536,0.9564936586271844,0.9063121973651657,0.9312016033618217,0.9099412032771087,0.9592816470777444,0.939371192520409,0.949738503249696,0.9558978789989387,0.8973271452795735,0.9732632180230191,0.963136522197617,0.9343146689850961,0.9550692549701846,0.9692212340000588,0.9838855319288552,0.9096643122073298,0.9321514708324806,0.9611015967999875,0.9497374888708447,0.9872398113724374,0.8092520985805677
30_01,c2,oc,15601,0.9531914095486841,0.8984609177049344,0.9215652527390154,0.8975397428662402,0.9507294403573631,0.938531669125759,0.9471758538655722,0.9547063549322146,0.8859267773227706,0.9661350175278294,0.9541268440647511,0.9246920466693163,0.9505334049718352,0.9648318775729473,0.9834136026184118,0.8992360619204879,0.9172490826853863,0.9561773782473291,0.9437955874482987,0.9854247563004792,0.8123110228108681
30_01,c2,oc,15666,0.9479689026254403,0.8992634537439653,0.9195457666868989,0.8955402023482083,0.947121626958767,0.9361573994709657,0.9482783447415692,0.9549696294712282,0.8835461045112679,0.963899551116257,0.9492846944254472,0.9206104966034181,0.9458260462745596,0.9640595822677905,0.9829710187530708,0.8914633734838884,0.9188499965394785,0.9549620442369348,0.9433175376676659,0.9863190734312691,0.8140896637466013
30_01,c2,oc,15731,0.9517865500017642,0.9023186299447273,0.91504704118547,0.8919167841117731,0.9449012160644665,0.9442186693139571,0.9490226832056675,0.9535104931194234,0.8827719823955699,0.9629194899486124,0.9481316711966614,0.9229548549892412,0.9445806973683291,0.9646825735317527,0.9832526679195192,0.889099713620482,0.9209819868923773,0.954572171643891,0.9432886264056053,0.9859035624859256,0.8210634704813758
30_01,c2,oc,15796,0.9545263741059474,0.9121568508687804,0.9184141485826135,0.891476811008826,0.9453961303349818,0.9509232035780526,0.9508225528492059,0.9478798481591406,0.8829104986689422,0.9636875883932088,0.9444086266639117,0.9270376201973056,0.9434864847373493,0.9645882179459296,0.982113000051779,0.8815921738171082,0.9176371493918621,0.9581465284644402,0.9467597662303375,0.9865033796413535,0.8323733705560212
30_01,c2,oc,15861,0.9549748707546661,0.9125000743565373,0.912782429011239,0.8833849880340846,0.9380390585784283,0.9511274343901785,0.9444382971084132,0.9398469069314548,0.8777014336242666,0.9600972624959548,0.9404552190518196,0.916533896183856,0.9370059810357356,0.9623433205145907,0.979943127742491,0.8716939674968545,0.9121961961383067,0.9577379315072928,0.9513914101929523,0.9834838646520825,0.8377624289487098
30_01,c2,oc,15926,0.95881487799303,0.9142339299996959,0.9116153344761146,0.8860817734807407,0.9377479556025501,0.9550878911690487,0.9391436778063397,0.9344583441594757,0.8796902269610637,0.9599546833852239,0.935635871776602,0.9137799488646438,0.9349256846380578,0.9609550866148893,0.9793534221180129,0.8670125750196328,0.9098354710904717,0.9569172849253161,0.9516497160207276,0.9815746323957966,0.8455742950575786
30_01,c2,oc,15991,0.9602074884310979,0.9160359774727572,0.9036376262466884,0.8783018839827023,0.9277892810816014,0.9513300846947228,0.9286755030499124,0.9318134107445605,0.8786712818343555,0.9548847221096143,0.931527011848829,0.9099486115211345,0.9338752959027412,0.9604136563174502,0.9783794620185737,0.8641654066707019,0.904758224772218,0.9571275096762158,0.952222609273173,0.9825865376102242,0.8451045262012403
30_01,c2,oc,16056,0.9600663934773679,0.9116130324452603,0.8999428122896448,0.8792130070856262,0.9163957675756194,0.9468866403903428,0.9184913329300657,0.9257487788975065,0.8790375741813656,0.9511640022337786,0.925089044929711,0.9005127322212121,0.932896686623255,0.9643989233990581,0.9780147611930461,0.8584441788539977,0.8997541357747839,0.9565096777938902,0.9521023412403736,0.9809340213266016,0.8563256220853788
30_01,c2,oc,16121,0.9618599243534818,0.9092481079128871,0.9004327849716296,0.8779244033320924,0.9098810169883088,0.948248281793004,0.9210035919894369,0.925428798019659,0.8765659015575722,0.948345659680449,0.9258097969170399,0.8919304455796893,0.933845144563089,0.9678394652300796,0.9815585472375411,0.8567089904386939,0.9002643149644601,0.9591458020715192,0.9480500128514016,0.9796453190304232,0.8663863656953855
30_01,c2,oc,16186,0.9618582641146316,0.9022760015784848,0.8956733989001686,0.8800920192467556,0.9036521634158294,0.9470651526092877,0.9188559472062747,0.9197347884093122,0.8739610181058936,0.9476688292033146,0.9236085748991217,0.8903858545670589,0.9364951156138812,0.971830570184029,0.983811492668423,0.8648307234870998,0.9022114412774347,0.9588960602723672,0.9465929274687079,0.9783382313307187,0.8758123416753573
30_01,c2,oc,16251,0.960838290009176,0.9007094968893324,0.8993679508388249,0.8813971968582889,0.8976118217565487,0.9516581892331832,0.917742306813949,0.9192373619017464,0.8762420452927554,0.9497138296991446,0.9225760072307351,0.8909196498097567,0.9388580507140857,0.9755309640659078,0.9859956564249706,0.8649436996162444,0.8998159134005981,0.9589456457106363,0.9507196987532921,0.9777376847107753,0.8782789034465934
30_01,c2,oc,16316,0.9597674487671015,0.9000318880053277,0.8977083131829429,0.875065479182983,0.9001895537766984,0.9513465233186472,0.910523246485223,0.9200854580605735,0.8758020557680667,0.9427541607642754,0.9204260058397911,0.8923207473439198,0.9388144949637346,0.9735067440428008,0.984660925188701,0.864212846699918,0.896747376379451,0.9528630220950751,0.9510059031549792,0.9763506916928745,0.8842305833589184
30_01,c2,oc,16381,0.9594442495958045,0.9004527574973734,0.8953512788150707,0.8706588576503902,0.894432859978524,0.9481374170827229,0.9065809067392069,0.9134893636841015,0.8797160876420138,0.9378841123296242,0.9143496661198647,0.8886027824998293,0.9387019437501795,0.9745529530099896,0.9840603812468112,0.8651686796663589,0.9072805514493116,0.9537716664118221,0.9499698188726025,0.9747288502647705,0.8773774679043572
30_01,c2,oc,16446,0.9601569498479587,0.8971164828164566,0.8990882126518152,0.8725463720591314,0.8889665776626312,0.9490410793357198,0.9077847294989269,0.911968108344645,0.8846394108121297,0.9409237957335911,0.9148492999610862,0.8886834614420412,0.9437890249675915,0.977902786986602,0.9863447976796867,0.8656168267063877,0.9115194142786018,0.9520756712524672,0.9511304553368308,0.974016272828284,0.8797092222737043
30_01,c2,oc,16511,0.9620808467880004,0.8921869723162749,0.9019901039564824,0.8736740553451693,0.8941207528892939,0.9494090053743255,0.9091314885771826,0.9224073063919137,0.8787221350586484,0.946559728616997,0.9266479403542192,0.8958257642900735,0.9497577705699977,0.980160319300149,0.9879714252213122,0.8745365033860717,0.9138679611547881,0.9525209986502707,0.9506390510575707,0.9752682607051378,0.8846924985841835
30_01,c2,oc,16576,0.9671036092468357,0.8917095823787685,0.9078409925539982,0.8855569329934216,0.9084848981021955,0.9505641383207649,0.9147305257248769,0.925893561280001,0.8794465304091452,0.9534588070773279,0.9347398928395548,0.9014151050577859,0.958182542688103,0.9825520450755595,0.9890906305973047,0.8880242197806479,0.9229134218016039,0.9574216459108918,0.9519378543514955,0.9784884291493601,0.8834907048341197
30_01,c2,oc,16641,0.9697264428861608,0.9003010340494341,0.9155355229219277,0.8898246082368854,0.9154256310083,0.9573572077370083,0.916001255548255,0.9296164224210213,0.8816713532534071,0.9574968447425488,0.9400457501573726,0.9034195044756037,0.9664804327190016,0.9837214961888758,0.9907953414003937,0.8984807124674408,0.9198496325688991,0.9591336209972469,0.9525509001768947,0.9810197667584979,0.8867833409032504
30_01,c2,oc,16706,0.9677225850116774,0.8997633486803925,0.922010053989446,0.8926097251114802,0.9187851817194431,0.9548484282835907,0.9186039404536261,0.9347322584576586,0.8813564362800412,0.9563723685763265,0.9386733340865726,0.9039657185259308,0.9666538031528948,0.9847207110206508,0.9907889515229593,0.9043998843347056,0.9161175473891829,0.956676341445563,0.9496536893780791,0.9835245355310018,0.886219686406064
30_01,c2,oc,16771,0.9656658145419234,0.8952621940332489,0.9205560709568728,0.9001226438809227,0.9221835835334107,0.9515817298504394,0.922069632200831,0.9380353929425248,0.8833483248322725,0.9584626337552249,0.9425279713881839,0.9027299501811656,0.967132682187747,0.984445070552105,0.9918428978356328,0.9087604763499205,0.9108301983962375,0.9556648027061333,0.946535603495834,0.9845084674609342,0.8866994325818385
30_01,c2,oc,16836,0.9670782892352154,0.8906045583220852,0.9189851435970483,0.9017572134666113,0.9300461913358993,0.9520483168006422,0.9280947758386575,0.9441452275648831,0.887583098056903,0.9565290024824836,0.9416662106363543,0.9056689386861299,0.9705071206113874,0.98418843839715,0.9915206457895369,0.9104517599277867,0.9093660144685383,0.9532216239984708,0.9477390110909243,0.987788948693008,0.8856847316421178
30_01,c2,oc,16901,0.964774545195678,0.8882341896854853,0.9227851262135258,0.8946388971421707,0.9286099805619727,0.9529558337739248,0.9316457756704903,0.9460178948704188,0.88491644746194,0.9593146715213379,0.9445382016405618,0.9069396119234925,0.9731629089928194,0.9870008942940879,0.9910278843233071,0.9132502996937613,0.9131958774738984,0.955179668093796,0.9475124682219088,0.9898783249357678,0.8903157409798778
30_01,c2,oc,16966,0.9669474309454523,0.8858527461250512,0.9235030157701181,0.8973510117490572,0.9421772167892343,0.9604330218960406,0.9401029923299482,0.9503438264926736,0.883317372727184,0.9618359002720615,0.9513784366701703,0.9161195349932979,0.9777281474424343,0.9889401785680334,0.9913562645409648,0.9206335771596054,0.9203415678902529,0.957516475969354,0.9497058244973975,0.9904084546487293,0.891320020432132
30_01,c2,oc,17031,0.9660003169975125,0.8927659965073147,0.9253439900054475,0.9028464600133567,0.9500031703112551,0.9630177677748614,0.9476134968971386,0.9548875733358604,0.8805132834461858,0.9678270035900752,0.9586265218662869,0.9231974487045316,0.9784580737781174,0.9891447631881913,0.9901532490882545,0.9205989147673627,0.9271859815838005,0.9601172063003113,0.9551790734518639,0.9925507817630043,0.8885778460050741
30_01,c2,oc,17096,0.963238028663022,0.89261354561525,0.925987120355923,0.9044802838425026,0.956119515440826,0.9634502744514145,0.950667624400848,0.9577063219375948,0.8777016725061918,0.969130797784989,0.9601966269083286,0.9203290578861232,0.9783992323787788,0.988280834086738,0.9885807844267112,0.922216408519364,0.9246019907474352,0.9593297618741333,0.9599738386125899,0.9935135995628172,0.8858873147697673
30_01,c2,oc,17161,0.9646496525682046,0.8966983999806191,0.9274390172111405,0.9065995112398321,0.9600304501127987,0.9639546780142043,0.9526128582423136,0.9588974853577096,0.8890006093409963,0.9712227306720264,0.9622036821794804,0.9256284691108577,0.9765518100659261,0.9876553212793048,0.988144775623902,0.9222897163196336,0.9249870654056167,0.9601535777867787,0.9627639147486005,0.99400503115093,0.8877099019956746
30_01,c2,oc,17226,0.96088399950784,0.8963694523849087,0.9250250660143852,0.9051663739370778,0.9632149947423662,0.9584840844716117,0.9553918649193731,0.9558404951446514,0.8834290289625184,0.9700718314741078,0.9618970496659582,0.9293971563957422,0.9774400629286693,0.9849735720720697,0.9877139590809926,0.9285631144334903,0.919513782542521,0.9575709359434229,0.9636501288079452,0.9940706219612346,0.8823677896593253
30_01,c2,oc,17291,0.9569671166288567,0.898241275363474,0.9216004041956767,0.9068374637392679,0.9661099281895081,0.9566872558440818,0.9602348361627018,0.9557685207333357,0.8817846204189292,0.9727196588792618,0.9624466432236057,0.9317210259603839,0.977394568074421,0.985282901045082,0.9861185937163663,0.9334731662908815,0.9222411300545756,0.9564432932059077,0.9641301730127936,0.9935725566747672,0.8755352020353853
30_01,c2,oc,17356,0.9543735949806716,0.9026329239737493,0.9220837459523692,0.9169477797530645,0.9719348681072909,0.957999994153993,0.9652063896784218,0.9628555914679271,0.8760227725251564,0.9738076728221993,0.9662485815366367,0.9408106214958057,0.9799824541991503,0.9846919223658953,0.9845658056169221,0.9437902982592989,0.9202957833510659,0.9548097944603211,0.9663005967302809,0.9925837715201156,0.8797416263768545
30_01,c2,oc,17421,0.9547910145295935,0.908507164555615,0.9298597302580658,0.9225621901084832,0.9764813699733258,0.9557114270806882,0.9682693076073763,0.9623331349012746,0.882065328651005,0.9766268294803102,0.9690401113045395,0.949399373664705,0.9792649201282317,0.9823647387228474,0.9820421182071049,0.9509645732035362,0.9237538742529959,0.9540833868062689,0.9671010938863451,0.9911404987167352,0.8742742627259903
30_01,c2,oc,17486,0.9520481109398236,0.911294106889986,0.9280641696618291,0.9247197737432389,0.9782628857258886,0.9573788615329555,0.9691714314608039,0.9648318558061721,0.8862364642631955,0.9758992928508994,0.9640888289433647,0.9466258600622798,0.9797342321174851,0.981012394579573,0.9802063837904381,0.9498595870282788,0.9277187843982779,0.9522187880089813,0.9669043997992801,0.9895698012672659,0.8614761496986985
30_01,c2,oc,17551,0.9457961390367229,0.9136667007365137,0.9287970921800466,0.9194861694240086,0.9782236850716227,0.9559108639187845,0.9688737495746302,0.9638569675922851,0.8903518521691682,0.9755982962511804,0.9597128039399192,0.9457500015099339,0.975608916921847,0.9758125322287539,0.9764454127495692,0.9494802463187184,0.9239978276641968,0.945142577402831,0.9663499503196662,0.9881895322612957,0.8626902153138192
30_01,c2,oc,17616,0.9468050952434319,0.9088672525064124,0.9210990922302836,0.9181564808763082,0.9791197544226076,0.9540346770472785,0.971597388116654,0.962326192360454,0.8903028626568642,0.9726540494759675,0.9598923155048243,0.9506158603815393,0.9718902177447231,0.9727953236967302,0.9726548867902607,0.948708035152561,0.9240111748438178,0.9442598765608804,0.9683387522403908,0.9874544991030997,0.8586065451226625
30_01,c2,oc,17681,0.9496735749453791,0.905942799217556,0.9151247648070934,0.9211188580056735,0.9825176139888754,0.9545775869901156,0.9722698680952545,0.9653991132966075,0.8950732990862411,0.9724327153754843,0.9639957803867587,0.9530833158563233,0.9745873796309531,0.9694399640077377,0.9684985837471187,0.9559922604828202,0.9298584937648626,0.9424585371676754,0.9702101619480693,0.9863150330416691,0.8537709301142274
30_01,c2,oc,17746,0.9529880164068666,0.9060514741263017,0.9158937117244944,0.9185617694066103,0.9817667635816447,0.9534616210820558,0.9723107170757848,0.9686713103834604,0.8992764329071379,0.9711176119480792,0.9609248521028185,0.9560692200040718,0.9749025392990786,0.9717315648796596,0.9658498560287887,0.9591629728726077,0.9360483449835351,0.9431219333966953,0.9735065957372339,0.9830677914219806,0.8464117280906288
30_01,c2,oc,17811,0.9558257162624526,0.9077559499864721,0.9138492866569015,0.9150650402467113,0.9824644609551133,0.9536522927709843,0.9734432473915549,0.9693741452191681,0.897886552274061,0.970565119860542,0.9611372444765492,0.9551820949485778,0.975677101836949,0.9700786331386416,0.967827469256508,0.9606999255485357,0.937089545167649,0.9478158204441064,0.9708545449045581,0.9824411892200337,0.8280098042755228
30_01,c2,oc,17876,0.9571853988323797,0.9071596317492961,0.9146272697390867,0.9144209224984605,0.9836022469963815,0.9534592290316365,0.9725815229735507,0.9664260785259294,0.8964940716811038,0.9643945267065336,0.9587194431472834,0.9520136983636637,0.975645725520599,0.9692298995406851,0.9680109559249576,0.9608073669032481,0.9329135877989748,0.9470697442083892,0.9687223249428113,0.9806356398350182,0.8111510992819678
30_01,c2,oc,17941,0.9571412589696605,0.9091295864012492,0.9105927604994581,0.9148743772377417,0.9798673509870807,0.951823552758753,0.9738416606873952,0.9657146262747783,0.8988474165902952,0.9602740726751067,0.9546068482573823,0.9514485375922945,0.9743615271081221,0.966304528877087,0.9679003125107305,0.9570168833626764,0.931196147459146,0.943614587339954,0.966072191949606,0.9800808830457128,0.8087284044198878
30_01,c2,oc,18006,0.9604449889654141,0.9082255855845053,0.9068748140667348,0.9123385113345218,0.9806097097275621,0.9549633561070024,0.9735105042838914,0.9627907439355865,0.9019105991823634,0.95550371164631,0.9522291123884258,0.9507624187255106,0.9746842636802198,0.9653792137290874,0.9696308852588612,0.9586941883042744,0.9276151238808639,0.9437535374535583,0.9608234454366363,0.9789613958197367,0.8036440892424521
30_01,c2,oc,18071,0.9665990711685462,0.9136133057981592,0.9091666184189403,0.9155058975401726,0.9821709687826014,0.9549737782734106,0.9759264772797809,0.9656779455114942,0.907271664971969,0.957528353839679,0.9566563978087421,0.9529649366262932,0.9754542470437108,0.9678660126381581,0.9718650186807022,0.9585292264578144,0.9316841514181293,0.946728862179705,0.9592854577638972,0.9814040605141564,0.803684916162157
30_01,c2,oc,18136,0.9679870848674222,0.9158283944895879,0.9146887435990274,0.9144037707238248,0.9819868705490478,0.9568764010858537,0.9753405193055651,0.9672481341123307,0.9051991952286038,0.9576556667285394,0.9548346819095399,0.9532594010382726,0.9792111592518843,0.9682661091928196,0.9724515633489927,0.9557726823359147,0.9315386995328396,0.9463384859133999,0.9583193338046865,0.9810344308550164,0.7893407235096668
30_01,c2,oc,18201,0.9693569217451179,0.9185775316698206,0.9159829332925707,0.9179931926096094,0.9819289413532917,0.959363617804619,0.9753476527839776,0.9686240790879362,0.9090021439976189,0.9573067803072123,0.9611177516460533,0.9514698302765745,0.9797985821190764,0.9711362441529134,0.9752018908510974,0.9540250668639342,0.9405091045277567,0.9549333164960505,0.9595398517264593,0.9841123916953913,0.7884118138309465
30_01,c2,oc,18266,0.9727085053632752,0.9238097677187624,0.9223314786236559,0.9213793139003291,0.9800340595695468,0.9637650158835951,0.974985893454272,0.971334555908365,0.9169956193241401,0.9574569159547746,0.9647912883131344,0.9499569914718995,0.9808340676667479,0.9717372095352939,0.976529109203182,0.9550968490641097,0.9404177867245749,0.9616659849325625,0.9607664405548095,0.9850273634172255,0.7867494533038302
30_01,c2,oc,18331,0.9756997424208611,0.917593777218466,0.9197699229365893,0.9129034587475064,0.9774834679160096,0.9632101216875049,0.9701510102628956,0.965608575392767,0.9155129916100924,0.9597009264503561,0.9632955232544183,0.9473274975149617,0.981316053131121,0.9746001468335558,0.9781188139990471,0.9460269370269392,0.9426499744558023,0.9640866748175493,0.9617325209072011,0.9856332633059253,0.777322482591393
30_01,c2,oc,18396,0.9762963611294387,0.9201683151340163,0.9161040893758793,0.9152045955251571,0.9778000529397574,0.9671331625856561,0.9686315310075352,0.9704181316176609,0.9140315171027128,0.9606671436963754,0.9630942783143003,0.9479663460307297,0.981511349412084,0.9772476244529031,0.9785045576213529,0.9457087796460578,0.9436210371879157,0.9661603629947293,0.9608725049671216,0.9864337157028042,0.7841264010451391
30_01,c2,oc,18461,0.9770451406320373,0.9180297009142767,0.9147132928960374,0.913316426025501,0.9758365025208868,0.9677003616264815,0.9698259937103113,0.969365239225823,0.9128905638279375,0.9658695401263709,0.967955161220381,0.9504524992710415,0.9809024997735677,0.9782274157650216,0.9802559563190351,0.944321689058739,0.9439950966708232,0.9711725162297323,0.9594015983713439,0.9871027317813181,0.780605354984824
30_01,c2,oc,18526,0.9788188759174881,0.9210886137444128,0.9162830059723729,0.9197328372024368,0.9748956426641158,0.9674909161914205,0.9687994727644315,0.9678778553100833,0.9165599733174923,0.9661287986216045,0.9733796062930218,0.950674263426734,0.9804937087352643,0.9792264017912465,0.9821802982138211,0.9415620083670811,0.9477688790190707,0.9751635342714778,0.9627588811328333,0.9871385661366983,0.7718555150726868
30_01,c2,oc,18591,0.9821389296581483,0.9240429229240218,0.9174378327738272,0.9204796089886124,0.9731064562275635,0.9671900661520875,0.9623104712174444,0.9666843587376622,0.9160029711774484,0.9699307512348081,0.9729479969596978,0.944903810362762,0.9782445835209006,0.9765941401570029,0.9829300205398327,0.9396966100465065,0.9481456018954236,0.9746675361272383,0.9601858840948377,0.9869133732423516,0.7826495935250187
30_01,c2,oc,18656,0.978702514341033,0.9223835281740996,0.9205252404865566,0.9141669559216454,0.9709934294324968,0.9644172456535643,0.9613188994511077,0.9615703742349213,0.9111915925628008,0.9670736436145856,0.9705117504852656,0.9440026720417614,0.9769494225802214,0.977374289850362,0.9842550237695173,0.9295613081605648,0.9441740056387,0.9731345609643032,0.9561742040417394,0.9857412835031016,0.7683783091276932
30_01,c2,oc,18721,0.9775086773604074,0.9254171841588144,0.9211147759630671,0.913282277380421,0.9694590000127741,0.9673248769583559,0.9580746430649161,0.9572188702522735,0.9082132213834464,0.9688099081894356,0.9741365899885585,0.9413198934493672,0.976074649135165,0.9740897916153802,0.9857625012809077,0.922409125449182,0.9372560603407238,0.9733970556008946,0.9518440409956196,0.9860106116785267,0.772385626149828
