subject,combo,condition,window_number,F1,F3,C3,P3,O1,F7,T3,T5,Fz,Cz,Pz,Oz,T6,T4,F8,O2,P4,C4,F4,F2,OPTO
30_01,c3,oc,1,0.935059049278399,0.945083531800037,0.9291024310019491,0.8787200919850491,0.9277641703844033,0.9566807623805349,0.9467512975206483,0.9399283237197424,0.9140322971775581,0.9793361557463537,0.9549870479303928,0.917544203749808,0.9663568713846887,0.9874595416247549,0.9815759933000711,0.9176493380628056,0.9430516302177379,0.9663233919184472,0.9847801437029958,0.9849853186377189,0.7610152046446294
30_01,c3,oc,66,0.9228676926613236,0.9275744535738958,0.9174048424010561,0.8730369434307768,0.9380939137962743,0.9629812171593911,0.9422720467687137,0.9242630729209322,0.9196390194554489,0.9666114505961382,0.9388358387472454,0.9068650522479872,0.9562737424021079,0.9762786050263258,0.9801131643851427,0.8833570824432178,0.9306886681637214,0.9552590299242006,0.9798715970417413,0.9932553091258994,0.7856982039258589
30_01,c3,oc,131,0.9387879992402892,0.9149465624767285,0.9139406738010846,0.885234539448186,0.9343842719565147,0.9627030494888997,0.9471027386840042,0.9212602729249513,0.9162012626270416,0.9562502208196367,0.9323307755269046,0.9077169695747687,0.9185408691286937,0.9778936068685578,0.9768239389311706,0.8516174593126139,0.9202050459455795,0.948720663916837,0.9713566551988763,0.9883572039551909,0.825542224687237
30_01,c3,oc,196,0.9407032039855062,0.9041632865766255,0.9114203142830358,0.8659750347340563,0.9352728856594262,0.9647383613374385,0.9428003797630795,0.9007305447138791,0.9011641702482174,0.9470056066924797,0.9222572256719875,0.9030946737994098,0.9178431299811229,0.9712830094036122,0.9725871696032764,0.8660428869447914,0.9282797404525914,0.9489368122396997,0.9732276850437704,0.9867391228617131,0.8396346396006821
30_01,c3,oc,261,0.9528779449583338,0.8975051914514489,0.9197114162656216,0.8729345397003762,0.9360392456733979,0.9497619654788051,0.9425473425691454,0.901410263726176,0.8900593522650533,0.9496244690320749,0.9150678591350258,0.9021044586259794,0.9047761485038002,0.9748437501560266,0.9749491631759569,0.8562254127985371,0.9203068636581997,0.956245628176527,0.9629657521391781,0.9792620114242548,0.8484957995447477
30_01,c3,oc,326,0.9558556727768204,0.9148028155620254,0.9128313547099969,0.8536357607297669,0.9360965058106564,0.9532509414327325,0.9362749249258291,0.9008607691542259,0.8805157736923874,0.9579703840842565,0.9211398982670272,0.9104507566885469,0.911693417202595,0.981644837423229,0.9831499209766127,0.8505887308805874,0.9172190743151125,0.9643379695083747,0.9603035470020992,0.9774270606861901,0.8328877573695157
30_01,c3,oc,391,0.960945644074,0.9260269683804137,0.9119091456049726,0.8658287670013293,0.9053228255825029,0.949684336225673,0.9303667261196363,0.8976014139074242,0.8831252760457918,0.9565324391482255,0.912682473576871,0.9098827393207362,0.9198557267324686,0.9759554689299716,0.9847451885365761,0.8665852225769081,0.9017035277711015,0.9593853559342641,0.9568826584525387,0.9813489947157222,0.8167135802792258
30_01,c3,oc,456,0.9506107575128918,0.9268284137147819,0.9149372744150698,0.8529881072871071,0.8996223292703284,0.9556400833873966,0.9461279128614941,0.8888641956092868,0.8793956665582822,0.9645845294691943,0.9207898785577685,0.9099718795301648,0.9283978097902114,0.9759420968941589,0.9843232891810019,0.8939391651817741,0.9144864843418744,0.9543012759568907,0.9660925569248384,0.9794887880441515,0.7665650535656746
30_01,c3,oc,521,0.9484523822001969,0.9170535752133422,0.9072055834683821,0.8615651725549642,0.9171160199454365,0.9463209978638829,0.9556616416332527,0.88766982077032,0.8641683368987788,0.973983222528037,0.9321491603734963,0.9229002889681885,0.9347449407441933,0.9705313130863661,0.9823789121890563,0.9058205805597866,0.902441630033918,0.9514125039334537,0.94964389314013,0.9791645086911545,0.7895214879532244
30_01,c3,oc,586,0.944920436815769,0.9220534731503047,0.9196042684058036,0.8708104218236579,0.926227085622238,0.9561364885519913,0.9552054010679173,0.9062124918041642,0.8517158861545351,0.9649966590085534,0.9352604681268634,0.9208038916177884,0.9430592178783299,0.9638445001019512,0.979500754038023,0.917288740450237,0.9134058072870976,0.9502262228417299,0.9598481825305406,0.9737074321721333,0.7656815330132549
30_01,c3,oc,651,0.9466510135160456,0.910312146636581,0.9167893363661038,0.8802142727306247,0.9367435277454166,0.9520105533289563,0.9596400025815223,0.9290572036257181,0.8398101752905198,0.9550713702208234,0.9476745002714234,0.918282236111181,0.945720673115346,0.9618463984014902,0.9725974373229287,0.9250874454706677,0.9173292642525742,0.9478111085651046,0.9691911990513092,0.9706200845688712,0.7804979989923961
30_01,c3,oc,716,0.9567739846330027,0.9016202975885408,0.9128825449357881,0.8944043414303496,0.9616036460764729,0.9564273489742625,0.9669401227560208,0.941112055975197,0.8437007250328572,0.9620399284329813,0.9660270096423413,0.9303121838680973,0.9509735104342742,0.9697795283345747,0.9623930031431038,0.9451348864892415,0.9309492492002608,0.9545214493265672,0.9654997332969196,0.9824304458365628,0.8021011422776391
30_01,c3,oc,781,0.9655016524758834,0.8982229989111249,0.9031406387577945,0.9107638206354198,0.9627375950665908,0.9541754950960706,0.9627657938588221,0.9452117220950964,0.8626758046911186,0.958584443393714,0.968997515538739,0.9316709454855674,0.9636011112996812,0.9649589393984179,0.9581634052995192,0.9463727274855847,0.9323601836030612,0.961175270011764,0.9651262700576833,0.9887677207897326,0.8004738855078466
30_01,c3,oc,846,0.9637671841721119,0.9014909564821478,0.8961083519735399,0.906564690110602,0.9339462120551044,0.9668340199675308,0.959941007966494,0.9323718893315752,0.8703376644881275,0.9456473176291793,0.9715936593068039,0.9230732999907029,0.9695801395598994,0.9694683584568178,0.9694157633954372,0.9429236780266793,0.9365095132914183,0.9642460658597294,0.9714347406169861,0.9882136926968241,0.7979727198994544
30_01,c3,oc,911,0.9690740955136986,0.9193675551080859,0.8786807984342481,0.8725873181115199,0.9022440862278183,0.9807143925039279,0.9583804629260995,0.9212801756086716,0.8963894978522535,0.9564073604471689,0.9689930151117337,0.9165811540563172,0.9694374031277143,0.9772358333066756,0.9729691391439319,0.9247710394138697,0.9207209003683965,0.9653064371703124,0.9611399181491047,0.9896467324773162,0.8169624471872599
30_01,c3,oc,976,0.9574656449541223,0.9106102420892044,0.8808462769792504,0.8636308535511519,0.8935372213465557,0.9745146882955289,0.9582710398630939,0.9070390588955043,0.8978446380813692,0.9551662331944888,0.961199982070167,0.9237329238088746,0.9636199908362252,0.9755564783394935,0.9664060760779749,0.9196456733651528,0.9116178265176641,0.960214616812203,0.9514551544662516,0.9848275811391247,0.811321839260843
30_01,c3,oc,1041,0.9605201112260896,0.917187544021216,0.9078851426479276,0.8297803351112597,0.8771161684463623,0.9792893479666696,0.9588043306155835,0.8913909492244054,0.8917887898835857,0.9518896339978874,0.9452527650824681,0.9153068976836627,0.9579718990312909,0.9729458069927517,0.9665231734316156,0.8925123212749728,0.8949881777250009,0.9664596047345071,0.9587526839362169,0.9870808164337246,0.8067553443172201
30_01,c3,oc,1106,0.9585963472651235,0.9204373479791227,0.9213093423410018,0.839536537093621,0.8658657883625868,0.9747740980746462,0.9550455540903976,0.8889318396029295,0.8898494251088588,0.9557296854937609,0.9525211369431872,0.8983577590546635,0.9508129517590918,0.9801743957358136,0.9728516606993546,0.8718478787696021,0.9137373242852688,0.9630743326073449,0.9540079216201376,0.987085579405137,0.8023109773798058
30_01,c3,oc,1171,0.9473236712655686,0.9022829248159341,0.9225534616907062,0.8485310591415843,0.8982342366761477,0.9733561503693448,0.9475458209166929,0.917533940807771,0.8851812102239288,0.9452275648007952,0.9487559370861536,0.9098784076452422,0.9471440867250593,0.9874040572876763,0.9786305858598815,0.8599235508608661,0.9094805887776246,0.9574509027475288,0.9622572371099432,0.9881467008699643,0.8074446032819246
30_01,c3,oc,1236,0.9510074257157599,0.8938885021217828,0.9159214798240738,0.8563540892383531,0.9221118078686442,0.9655425387070373,0.9333152476842721,0.9323332548435571,0.8768014239276165,0.9457307375112224,0.9514372743320013,0.9212040232545549,0.9647223080570384,0.9910685580312181,0.9853075719326913,0.8886236760465855,0.9255080039489415,0.9602969749354133,0.9688705665317111,0.9891204130659021,0.7821615068268003
30_01,c3,oc,1301,0.9452120100385476,0.8819626344151842,0.9131141733655548,0.8580468682037683,0.9107828471682856,0.9669809655935157,0.9323311743910394,0.9174655702068607,0.8835145592287633,0.9637753826719396,0.956233003161266,0.925769863266248,0.9679846174481445,0.992370789516434,0.9887424961717713,0.8954035592923658,0.9350579174375566,0.958259090844901,0.9641955595410066,0.9890724577561347,0.8204193187194458
30_01,c3,oc,1366,0.934670496354355,0.8777736183431057,0.9002270291984348,0.8848051980532478,0.9173721930985385,0.9587542519264101,0.9300675527899123,0.9373454823274683,0.880576335919211,0.9647036702374696,0.9542415533930697,0.9294962260246263,0.9675521686190605,0.9829812685066586,0.9903734528554027,0.9029477120121747,0.923895914576781,0.9558605470983776,0.9621009221715471,0.9902868287406488,0.8244717455149194
30_01,c3,oc,1431,0.927535844397785,0.8568343329612472,0.8764053527653196,0.8750148191545231,0.9307059096368577,0.9526718082781769,0.9274717272539702,0.9309864766427215,0.8639196428995334,0.9619243809914544,0.9259958185160073,0.9273511358085329,0.9696938758742979,0.9768111619812772,0.9825296666115237,0.8950049466257077,0.9001088746427336,0.9433318020699849,0.9548075827661779,0.9837159586332821,0.8433096189803391
30_01,c3,oc,1496,0.9297915331449418,0.8623249255259059,0.8605482641153094,0.8672345340926941,0.914213366953084,0.9456317526699423,0.9276172915421053,0.9082463776109131,0.8559698489534606,0.955091412647483,0.902551422149191,0.8940306668772704,0.965497691242708,0.9612621056063722,0.9628741194005864,0.8814614380741878,0.891512767086223,0.9279587038915478,0.9445624132674814,0.9795077269770784,0.8282201699393854
30_01,c3,oc,1561,0.9158376269158738,0.8658318458900623,0.874566561556792,0.867537160667705,0.9233208071089845,0.9309487613323245,0.9317482086521316,0.9148098754061674,0.8523136171249303,0.9424018884009447,0.8880564192183835,0.8984336487936955,0.9612257746387122,0.9526678804754367,0.957557201541615,0.8716680852703821,0.8757559723935024,0.9131839258154264,0.9165900783226596,0.9746753974410389,0.8321086529902194
30_01,c3,oc,1626,0.9280838601403196,0.8778921373221995,0.8645586501386743,0.8664918357746183,0.9527383683792895,0.9115984189569457,0.9304800791275017,0.9385076628250874,0.8550626359242023,0.933470168908633,0.90513130248221,0.8970701295714336,0.9561647450361229,0.9500944391489309,0.9594841087745377,0.8926703287419688,0.8924581525839062,0.9267928705254883,0.9223579311388582,0.9799396721062065,0.7842429989637842
30_01,c3,oc,1691,0.9353770047391906,0.889333169346349,0.8650371051812101,0.8548042481482689,0.9656555119862074,0.9378344251514666,0.9362201846903595,0.9327652066601354,0.8619534000594301,0.9210442160165334,0.9217487945692773,0.8905351105965102,0.9578253043549438,0.9574261868824147,0.9566839210697062,0.9156711204823375,0.9102648553177972,0.933221750781559,0.9337237371555093,0.9760797285616394,0.7706125631256727
30_01,c3,oc,1756,0.9564023957304281,0.8970773183391673,0.8884221496637248,0.8862024361471561,0.972022414042883,0.9487033266680365,0.9599009842589429,0.9543928377745827,0.8609272305832283,0.9459440537390252,0.9466352162683317,0.8947919875867099,0.9604551469415936,0.9639796305025281,0.9700052740862043,0.932378084112652,0.925423312493041,0.9460251192757282,0.9522867406228267,0.9853165459317971,0.7402656781939253
30_01,c3,oc,1821,0.9724851909020396,0.9093119963453236,0.908630034608084,0.8947331089119972,0.978469958487249,0.960751517227211,0.9646696683356679,0.9624538911640184,0.8689210399086429,0.9651577211702944,0.9731549949662281,0.9279711288685101,0.9648821933040983,0.9790371939747978,0.9811798461605816,0.9541049026655133,0.9449281970565606,0.9681263269783668,0.9625650241500037,0.987595181635697,0.7094614001701871
30_01,c3,oc,1886,0.9734249435437419,0.8965016617892869,0.9176906510563938,0.9137419465416557,0.9800290887435267,0.964328026023673,0.969722790928665,0.9644689052894154,0.8767451266759525,0.9719381105014671,0.9849749883756251,0.9208795379004604,0.9775169154915526,0.9810718823121688,0.9790486789698447,0.9647041573204364,0.9617525151887246,0.9751152024165294,0.9587329373838331,0.9884123283611479,0.7151475738357937
30_01,c3,oc,1951,0.9740003047755166,0.9144389515780162,0.9309362053927435,0.9278834163389469,0.9798842667874191,0.969489029103522,0.9778189280263102,0.9474974848637054,0.8858315587154459,0.9751084057847307,0.9869955979337702,0.9370529396140582,0.9863047680050453,0.9775101512277538,0.9737925705681107,0.9676119729435371,0.9596462901527135,0.9803991812376215,0.9544163481578374,0.9827326411847996,0.6928762437426866
30_01,c3,oc,2016,0.9740887705077463,0.9140890081576787,0.9245478157692291,0.9300623660171379,0.9673240326288028,0.9582572153810398,0.9692403897597424,0.9387411872028103,0.9005974584267353,0.9758379128325031,0.9779105652341145,0.9379766790448129,0.9855316496428836,0.9834600207574267,0.9737669424348071,0.9668132994016834,0.9613691814057727,0.9816925542747762,0.9407111076747104,0.980927654781892,0.6622085559439566
30_01,c3,oc,2081,0.9704585017194249,0.9213298871542307,0.9254536176066123,0.9174673516933077,0.9608176086618849,0.9537376633651095,0.9568729804819242,0.9272152533021809,0.906031046256412,0.9676855636843772,0.9722623749968129,0.9289705219454458,0.9814676216164192,0.9870992137954837,0.9767585561840193,0.9538048696753592,0.9570520055082259,0.9799798800167233,0.9283071643867974,0.97535670498495,0.6549306865064173
30_01,c3,oc,2146,0.9495628435566976,0.9195638856843511,0.925835196053157,0.9101693159930836,0.9530879640749604,0.9480902888385246,0.9623347200349481,0.919940516432943,0.9109230474952535,0.9576112641947676,0.9535112071039853,0.9049067783721517,0.9788553265868063,0.9822203020010906,0.9723847950550638,0.9373193847791476,0.9417161666548085,0.9789768555977298,0.9235268580959834,0.9794883778009095,0.68661284376351
30_01,c3,oc,2211,0.9407592570400246,0.9129329201688718,0.9162373001965506,0.9099164349498473,0.9459060005734935,0.935770219855085,0.9594296781018173,0.9324536877574421,0.8967632407071705,0.9565217701142398,0.9482456068307302,0.9106495984778213,0.9727528674619538,0.9801618079063011,0.9804776900350116,0.9319877109678841,0.929593277200624,0.9778590196008916,0.9299050002495228,0.985447504389479,0.6683057731553839
30_01,c3,oc,2276,0.9440783736963803,0.9162417593074023,0.9286289887650173,0.9001658380520713,0.9439287573714005,0.9356907305795812,0.9688939140914445,0.948547074681351,0.8981578824718964,0.9704013068610089,0.9549733652346823,0.926263274670674,0.9731762314677838,0.9891334806567688,0.990508366401503,0.9379190782340128,0.9386033566683242,0.9749474542392176,0.941829094937835,0.9887414004279331,0.7186574959673574
30_01,c3,oc,2341,0.9378459162412783,0.8979489365195876,0.9378687434082708,0.9295796803424007,0.9532249620800625,0.9356338730235432,0.9844848960268007,0.9541637336523344,0.877437157056423,0.9767804131189128,0.9608993953785971,0.9423908937900636,0.9646638213827063,0.9834896498291055,0.9880802258156026,0.9501192417258877,0.9458513291304474,0.9609209158980112,0.9489099592010102,0.9861224644613427,0.7397476435060859
30_01,c3,oc,2406,0.9274922439312132,0.9023403782920362,0.9372637229085488,0.9336221089289731,0.9611291669594093,0.918277490900163,0.9790289339558893,0.9637717656914152,0.8745803827221194,0.9790567260108332,0.967573715041234,0.9515607059102195,0.970724912508924,0.9773158583891641,0.9841332167255206,0.9640835440849135,0.9539608496200428,0.9618272876402744,0.959585682434132,0.9853710116751323,0.776769014131584
30_01,c3,oc,2471,0.9319507068162614,0.9097058015071326,0.9379843937594083,0.9372039949942276,0.9728163931017207,0.9199592507949684,0.9733235629800033,0.9726797788218684,0.8812273742616245,0.9836054664903084,0.9723522559348043,0.9681959695018658,0.9679821237314634,0.9737934754142473,0.9816292843008277,0.964647386793201,0.9563422278346633,0.9501220053874091,0.9578665031462833,0.9867013379811789,0.7635172171476463
30_01,c3,oc,2536,0.9434264988116094,0.9189777863404923,0.943313723641776,0.9273922360569548,0.9755524800089415,0.9437575405836423,0.9721807728428796,0.9691204836982358,0.9038135839554309,0.9814548510574562,0.9714098484217335,0.9743854024044892,0.9572104862406708,0.974780469273458,0.9796192084310739,0.9650923325251273,0.9590443032549075,0.9561867240621856,0.9739339867857075,0.9843073236938172,0.7770972509657693
30_01,c3,oc,2601,0.9588391425747985,0.9047848718481056,0.929145491058151,0.9310656984191443,0.9786434168526085,0.9451993655034092,0.9654381042018402,0.9679322123410805,0.9039690058613834,0.9696954556879536,0.9580397192844814,0.9635120430859955,0.9472411964726198,0.9682666804442474,0.9710771290064062,0.9456465213305152,0.9415319648028657,0.9603000899730038,0.9693376292887554,0.9841484174708929,0.75326638245884
30_01,c3,oc,2666,0.9531712936759267,0.9043107664933986,0.9196510010085861,0.9001951989894655,0.9781802440490347,0.9483099896798173,0.9509789258933566,0.9628729805553562,0.9150149534966469,0.9701900395529075,0.9577479035893114,0.9537180974200763,0.9587324083529982,0.9770418230313643,0.9752209931010444,0.9317670662325174,0.9199885655594483,0.971540532853614,0.9696914641093871,0.9783032683946714,0.779686514634875
30_01,c3,oc,2731,0.9620162643977844,0.8878480679152577,0.9126830076769206,0.8941127787863883,0.9735740653931112,0.9625748199077226,0.954749800927086,0.9514756624645252,0.908939801624897,0.9620096562928828,0.951310367883184,0.9606444334361773,0.9622270849071057,0.9786955973212024,0.9819896994471858,0.9341495775326465,0.9119605891165694,0.9698643840693625,0.9633177879349799,0.9856434182554028,0.7497363306111943
30_01,c3,oc,2796,0.966127418296747,0.8899203224346725,0.9166697377110542,0.895393614008487,0.9634815510713312,0.966227281813832,0.9554161360254493,0.9255124986276507,0.9113882705025805,0.9557597553437243,0.9584750168971569,0.9543612260967506,0.9743735084032993,0.9815031097661463,0.985636185216617,0.9401622251628718,0.9335307906895951,0.9772955320911811,0.9711379178172719,0.9793898800405095,0.7477799421130803
30_01,c3,oc,2861,0.962004225930402,0.8929472287064018,0.9119147079036399,0.9036869015809329,0.9497500460729007,0.9624813275628504,0.9511552663258075,0.907495743060305,0.9026337242221034,0.9554277124490507,0.9521511444890128,0.9428984699599161,0.9765334319894109,0.9831988735112472,0.9887379777472831,0.9387228882366084,0.9170009555063542,0.9757969928300627,0.9616296891572307,0.9749596484805306,0.7343914769108582
30_01,c3,oc,2926,0.9569579660603015,0.9058397653833267,0.9084210597357818,0.9014478871999682,0.9387786709282266,0.957437353669438,0.9421566271111487,0.8989345914960539,0.9033832312027011,0.9686445618334425,0.9655915811630085,0.9370224875531744,0.9759412516590182,0.9868027394200873,0.988293728401397,0.9431339940607345,0.9383633221788211,0.9735351338113815,0.9683465279905439,0.9750219546661087,0.7522068392895578
30_01,c3,oc,2991,0.9587293485084548,0.9173123643730176,0.9223752966047969,0.9262765379024399,0.9426153049986358,0.9629183871882813,0.9622137855695289,0.9254352477055571,0.9103586067888019,0.9743776708724701,0.9709448841731324,0.9597284892726299,0.9771361686476513,0.9870273604352562,0.9792171299952889,0.9458288750179173,0.9394718193493086,0.9671718262380767,0.9655608815016106,0.9783521008459186,0.740892277442464
30_01,c3,oc,3056,0.9580976089064058,0.9249102558114014,0.9350607372792998,0.9397972704312507,0.9495084864524282,0.9601186418338814,0.9693564627221473,0.9398958605427155,0.9015500888305097,0.9729805905821616,0.9694744127998071,0.9609879365284877,0.9810345301220834,0.9816639599800665,0.9850707890944278,0.9526998761160314,0.9407874304593723,0.9613572047356967,0.9706068071852185,0.9813601192275412,0.7534690460528216
30_01,c3,oc,3121,0.9505315593587416,0.9185273820662453,0.9323142860801958,0.939552951306817,0.9636080067583539,0.9663404966269282,0.9791250439360222,0.9370655056851167,0.8958905321794866,0.9760064971164207,0.9745128317838544,0.9645501533821672,0.9806356821950002,0.9814365740192825,0.9791090161618252,0.9604806956752855,0.9339714125972285,0.95392653604287,0.9683720211232819,0.976694101477249,0.7582551824384153
30_01,c3,oc,3186,0.9491110254575521,0.9134702563173266,0.930352394425787,0.9389167642184888,0.976078719030908,0.9633721371957032,0.9830224556798649,0.9507293747319,0.8998357963503931,0.9830660932245892,0.9820836381145516,0.9656769051830598,0.986280971021969,0.9861299813740263,0.9802830307549524,0.9744094462918382,0.9399793566005249,0.9640183275087296,0.9666159089788591,0.9810799264405313,0.765516453869408
30_01,c3,oc,3251,0.9445181703738024,0.9107262233565265,0.9267646140608703,0.9201927440002639,0.9776555872070719,0.9625363065484503,0.9810201548160906,0.9488167463116847,0.8925916868443057,0.9772768897043632,0.980188569718221,0.9740810656457126,0.9820851709816366,0.9882353505966083,0.9811224121975924,0.9750144893602469,0.9424778703901459,0.9631921132450352,0.9691123844936972,0.977386761484189,0.7448711665412815
30_01,c3,oc,3316,0.9484049627685162,0.9085354920105295,0.9125157338309369,0.8943916039253905,0.9716775046816172,0.9549196943384355,0.9699013224018146,0.9274634259932506,0.8787532525256906,0.9694738064205777,0.9731368937764979,0.9549255250848706,0.9801582336594402,0.9861308234355249,0.9825095840683168,0.9612982481339092,0.9458345294095992,0.9545232250573438,0.9658632722181489,0.9769280794610546,0.7132483490800113
30_01,c3,oc,3381,0.9521875263805116,0.8888283665415959,0.8907216620175924,0.8671987210901503,0.9648027800882073,0.9448545311952641,0.9482819820060158,0.9088054238516166,0.8838453867436249,0.9658925361880318,0.971943340328303,0.9423468977131512,0.9773996382563721,0.9868467154248594,0.986143462616595,0.9524112090674565,0.9320204580404925,0.9589769303256556,0.957152813218679,0.9800693425966918,0.7081858252039485
30_01,c3,oc,3446,0.9465680285270418,0.8667231806076658,0.870235683930589,0.8556897570124399,0.9533721641627243,0.9220176971656725,0.9286182888396609,0.9039607537032979,0.8560546312810746,0.9559141569630812,0.9668292877530299,0.9404435043893774,0.9766220145403226,0.9839641211065056,0.9878839334528194,0.9444517223077117,0.915118790196589,0.9609521395292979,0.9413872005504716,0.9844642143566165,0.7254634310511008
30_01,c3,oc,3511,0.9604837280980398,0.8693179238524791,0.8830005674423517,0.8520468974417458,0.9376249984973066,0.9282455001207718,0.9252248267120572,0.8886040199996709,0.8559574994764395,0.9444211146667105,0.9583769726373548,0.9484000407910597,0.9769290500001817,0.9880507639266998,0.9876005029946373,0.9287622347290454,0.9204349157346753,0.9538836218619358,0.9519756678423912,0.9778364767545079,0.7220590693690002
30_01,c3,oc,3576,0.9637738479732509,0.8833899200145062,0.9140883059763493,0.8912911968216269,0.9341814373502288,0.9285932021214905,0.9234516600874841,0.9045269879359421,0.885881578736139,0.947723932463295,0.9573032186684545,0.9485823011916905,0.9799993686504905,0.9808046259144614,0.990533560365038,0.9291510511082125,0.9137453764832657,0.9507286506745253,0.9537030859489062,0.9795720944488749,0.7327879521344133
30_01,c3,oc,3641,0.9498438412682084,0.8805055381862242,0.9173856919445832,0.9147248770023978,0.92521286993176,0.9263656204345249,0.9226950165532459,0.9178154986198293,0.8928048597475956,0.952453954623,0.964464830476369,0.9574413808902769,0.9860674108636261,0.974619375897617,0.9869519415249633,0.9637270033286828,0.9317514641348308,0.9500855520509417,0.9580535196077841,0.980547671187231,0.7490656559298045
30_01,c3,oc,3706,0.9427705015111153,0.874005756002968,0.9335946992912889,0.9394529338777531,0.9387159575632498,0.9206088648642337,0.9394494409757084,0.9189117943674784,0.8941330173212045,0.9624754687845165,0.9654165211538644,0.9685617421156141,0.9853170055593095,0.970458869329635,0.9872873191122842,0.971331034838395,0.9502425013369724,0.9495469939100765,0.9671165377542896,0.97393367949253,0.741560207144043
30_01,c3,oc,3771,0.943844037196166,0.8894730531498574,0.9449417023068709,0.941005415244289,0.9404705063037727,0.9331829833055655,0.954648282094283,0.9417728464824754,0.898619641184881,0.9693135371846218,0.9710249067869837,0.9684717325344288,0.9802752869182745,0.971246905139762,0.9809433904913873,0.9632232725297087,0.9637594547406962,0.9511168094615781,0.9701263999798221,0.9784215401960185,0.7477755614487035
30_01,c3,oc,3836,0.9314450261065814,0.8931416831444137,0.9465911273766939,0.9502004240971164,0.9402894265788283,0.9223211144830359,0.9609391841414862,0.9410667144524129,0.8845332296570112,0.9677147306847815,0.9704820017235564,0.9570696257248104,0.9765970358973247,0.9687419182071191,0.9707362724899194,0.9667275609205273,0.9629624524968062,0.9553217689741529,0.9799762018668028,0.9783473737829133,0.748458386562393
30_01,c3,oc,3901,0.9431192449736282,0.8928567304386562,0.9343818967312052,0.9445545644296323,0.9483879952833911,0.9333618270869851,0.969220984073328,0.9407412617066182,0.8710078994410246,0.9645277402123248,0.9704520022729503,0.9555720165988548,0.984409070509763,0.9761016263057295,0.9690324009985417,0.9604132585998155,0.9554930657140037,0.9602495492004108,0.9738939277821859,0.976861637321878,0.7582724631076
30_01,c3,oc,3966,0.9631897453887025,0.9002953968507368,0.9322310074147877,0.9378423602787392,0.9412477696533939,0.9505009266944424,0.9640478192784373,0.9480225336287731,0.8875668845968439,0.9678363767959584,0.9783913948902203,0.9532998481850842,0.9905489579551177,0.9831133720273839,0.9736090503153065,0.9523251017684684,0.9576723336117894,0.9735028894465844,0.9727618649234974,0.9796992634324145,0.7564593652446976
30_01,c3,oc,4031,0.972014761524095,0.8918189207919109,0.921465794578274,0.9348279732621861,0.9436479154597226,0.9545071445516883,0.9662673626470398,0.9484152405923997,0.8847158923646082,0.9751459684515686,0.984299429972983,0.9425355808601649,0.9884833213178669,0.981736993156445,0.9755731069289401,0.9479965401078106,0.9559873748898036,0.9790430354642211,0.962826946644986,0.98130091769962,0.7580692052162195
30_01,c3,oc,4096,0.9719543817337506,0.8932888297075386,0.9109276325878177,0.9273498357281134,0.9309200507785049,0.9386673842225491,0.9557527939225526,0.9428720395409799,0.8965005571012684,0.9669695181291357,0.9782915702692524,0.9374478859336435,0.985958474689412,0.9838208078747119,0.9788868741263632,0.9425664408604839,0.9490903322456586,0.977364875750754,0.9597900054662597,0.9826298029715107,0.7493021334739131
30_01,c3,oc,4161,0.9720586082820671,0.8785415377995797,0.9074716093126953,0.9141073954049791,0.9274153337929301,0.9352403119913344,0.9463630926125763,0.9322638191994416,0.9017613878637001,0.9665070301825814,0.9698392314456973,0.935342903548504,0.9804690547682072,0.9820310177887777,0.9868333741744985,0.9355182344928786,0.9442067802126174,0.9753816652592413,0.9499895239998267,0.9860494218554634,0.7525446692577559
30_01,c3,oc,4226,0.9582690924258931,0.8768466258865724,0.900836937507842,0.9007554641622127,0.9341604117389445,0.9156609613260209,0.9333285513808166,0.9178931777104222,0.9002988864604681,0.9706101989662742,0.9598223271850631,0.9375878417037009,0.9624984152017602,0.9889898302761119,0.9896966564967374,0.9231404718794654,0.9461254109442966,0.9774145662068268,0.9392640940518899,0.9887038980209789,0.7414984815681883
30_01,c3,oc,4291,0.94474594967399,0.8728677273886353,0.9114190332631456,0.8972450332420346,0.9263210292472095,0.8952604702985894,0.9424957436192947,0.919968716946691,0.8922418568338679,0.9728416996062645,0.9542639263112197,0.942953656279836,0.947398893023982,0.986945383544113,0.9904085636642407,0.9118252331375405,0.9371655017527728,0.967459783991003,0.9335301464859452,0.9888062258593715,0.7253687803498103
30_01,c3,oc,4356,0.9271842982350249,0.8770955600817063,0.9237367629055451,0.9115417407942175,0.9314832835732482,0.9153019068080392,0.9470191295002407,0.932466555634687,0.8811921961815047,0.973425207749711,0.9541356442042497,0.9469476371674717,0.9421577309810795,0.9851429297826775,0.989021571604037,0.9358063151003034,0.9389968601273827,0.9546950730748727,0.9493037415601584,0.9874828101498787,0.7406979887682893
30_01,c3,oc,4421,0.9175564745334677,0.8855015918094362,0.9256433430407709,0.9096285337011168,0.9280500554642082,0.9297251887506445,0.9485273809300298,0.930399042371874,0.8816891551761253,0.9779411033159084,0.9462799831658831,0.948232782588876,0.9469054888677733,0.9863014638082983,0.9914210256877655,0.952619958206326,0.9445788304156312,0.9486392536719485,0.9526503399313467,0.9783158463682983,0.7337670476712267
30_01,c3,oc,4486,0.9230242301692214,0.8961531476416932,0.9293005360279933,0.9205496848874353,0.943923155233153,0.9310056525846819,0.9594178055959929,0.9522532577257269,0.8782191326366022,0.9770424677615395,0.9648505351662023,0.9385186186509797,0.9581077904892771,0.9781477075977367,0.9879177664935489,0.9504944597993588,0.9521712994790674,0.939358265062155,0.9704302854807973,0.9812900288001916,0.691791198380983
30_01,c3,oc,4551,0.9268757324062609,0.881441295220738,0.9215426642566334,0.9032318378180647,0.9454266307422906,0.9479257169892309,0.9636983452635158,0.9548787230681407,0.8784706695437441,0.9660189999712803,0.9599216309133092,0.9239001315665396,0.9564058470601713,0.9729069497459197,0.9841989355663894,0.9538381762232978,0.9444651067818326,0.9330891472441367,0.9710880768841988,0.9799210774796936,0.6934123230062693
30_01,c3,oc,4616,0.9399177844589061,0.8969010192885292,0.9145418669129753,0.8993077953607507,0.9605646266723451,0.9594254676760949,0.9602609992847533,0.9608289049255746,0.886208815759585,0.9642947550992055,0.9596299744639091,0.9221755232031937,0.9578326166170168,0.9687760077589466,0.9809270306513285,0.9388075176495336,0.9274176983577138,0.9383685537826523,0.9686656606688238,0.9832076626395607,0.6937476349414379
30_01,c3,oc,4681,0.9555495412515979,0.9026516260983793,0.900666306834442,0.8911985552116626,0.9663779063121049,0.957974310825004,0.954447379803455,0.9529480111920332,0.9064551528608524,0.9622174597883841,0.9592568274174449,0.8897116198099789,0.9613859594371732,0.9715345003139908,0.9792284613215672,0.9221875261689589,0.9226402380636767,0.9544060925759725,0.9641403318366342,0.9793861970609313,0.6843084440708587
30_01,c3,oc,4746,0.9715037927150907,0.9012242339531957,0.8971769543088425,0.9030334720383982,0.9684680960490146,0.9663407918559441,0.959737602341442,0.9565045820483027,0.9214495555576814,0.9567088428846491,0.9662172372804597,0.8741110156161181,0.970037651869843,0.9722011731449441,0.9878482854070866,0.9125589337788852,0.9134382743720374,0.953834041907711,0.9621569879118325,0.9827485735468261,0.6692490758526787
30_01,c3,oc,4811,0.9763751471802145,0.8976792506732355,0.8979537342378873,0.9144370583228001,0.9650968316528038,0.9677367631903353,0.9437828702521077,0.9592378744423778,0.9033864984453489,0.9549127343030819,0.9611927687479858,0.8938798572815742,0.9798201225826181,0.9780315694596757,0.9849309317648872,0.9290241841590098,0.9026720500829023,0.9544562856477001,0.9521074011057161,0.9842574987877266,0.7043161254760867
30_01,c3,oc,4876,0.979638541297958,0.9215959614702508,0.9298697495814671,0.9368065942096842,0.9696716277773484,0.9633490765874864,0.9428706293535218,0.9590870753245074,0.931305662810421,0.9769877162285678,0.9718264660651112,0.9090090839108111,0.976355919515768,0.9864013100502679,0.9880011747726987,0.9449117831887306,0.9225094917457706,0.964647979039124,0.9535971441837661,0.9858047160652058,0.7370202159430775
30_01,c3,oc,4941,0.9769419773521726,0.9111834538888689,0.9330791141414086,0.9351418219619042,0.9456532629100611,0.9521213407697434,0.9418287727527308,0.954912804063178,0.9152476911327941,0.9703214980620434,0.9623227710368278,0.8982210511774636,0.9774429972723487,0.9839091694015445,0.9916019753193207,0.9413049907089109,0.9115366661870854,0.9532503060434017,0.9475336108937936,0.9799010151018647,0.7309171215392851
30_01,c3,oc,5006,0.9582554620520866,0.8873572071730117,0.9380260486417499,0.929142684589289,0.9378950287643663,0.9383911172520298,0.9467038248268834,0.9549935961561432,0.8964021604284049,0.964085100535368,0.9499691342408989,0.9027382507576271,0.9661168868992077,0.9704901799544883,0.9856429898562657,0.9295487814884582,0.9052367829390597,0.9412616234637787,0.9395472275766389,0.9786543079193677,0.7512117758087647
30_01,c3,oc,5071,0.9489129071390504,0.8881762662254764,0.9494707879393703,0.9313903578903487,0.9443983055116718,0.9370387912621975,0.9486543037135721,0.9606458429966613,0.8800641028151076,0.9637731218917778,0.9612973809075562,0.8998964231243757,0.9594846764064487,0.9666612636414429,0.9737086778178267,0.9297113167190364,0.9134361876038805,0.9438869211002885,0.9333399304364941,0.9783779009706374,0.7442624440066639
30_01,c3,oc,5136,0.956150563710416,0.8945985514696374,0.9500691823841071,0.9195314628517192,0.9401311762630329,0.943801609612786,0.9664127219030995,0.956176907929725,0.8974533388052989,0.9695736554041939,0.9740768246685358,0.9055151466188063,0.9598399227740001,0.9684642790603273,0.9775594819607164,0.9237611274905466,0.9266708487838253,0.9641852378245319,0.9476386753234733,0.9732496258362937,0.7592017091106429
30_01,c3,oc,5201,0.9590316959142201,0.8817339830342584,0.950731129002659,0.9051270092676644,0.9140286702226524,0.9496808113956684,0.9637761977462993,0.9398406326233052,0.880068353757492,0.9561787931573283,0.9626138441478004,0.893913599633324,0.9547371258999763,0.960715805370778,0.976539197749259,0.8990108413963155,0.9239172930476349,0.9566120893034484,0.9478971357288363,0.9736299895956039,0.7441513035757887
30_01,c3,oc,5266,0.9613903866445148,0.9020418747190571,0.9578868573024995,0.9053380085746943,0.9257469979959446,0.9555237424694348,0.9612045835249231,0.9490230386215442,0.8928046866966803,0.9734281672301073,0.9661580208858795,0.9138076699756097,0.9570878985175725,0.9649088916720053,0.9808844382696957,0.9051219805059736,0.9433124254004746,0.970649043903648,0.9666592083113039,0.9790123053650454,0.7821258763207469
30_01,c3,oc,5331,0.972597063561281,0.9246477404434111,0.9506372078106453,0.9091109743398665,0.9181079420493861,0.9600296172809529,0.9567278667008966,0.947894361710873,0.9106793280357297,0.9769274143091409,0.9691135728601769,0.9342375930855694,0.9661882503256313,0.9750215953996855,0.986716337977868,0.9356137070932535,0.9433918947522795,0.9764184194983561,0.9756620740265494,0.9808574413545365,0.7787368648299622
30_01,c3,oc,5396,0.9706132505705031,0.9385441577259289,0.947182033759188,0.9191079883176811,0.9186881872708611,0.9528694688216206,0.9550259844167697,0.9567016856528765,0.9099197567014548,0.9765906360198545,0.9606321898425151,0.9469981104330083,0.9741278655996158,0.9826864952493124,0.9851247851391881,0.9333639864657168,0.930720067471317,0.9695856325111206,0.9729861702184757,0.9767714281668735,0.801178631913928
30_01,c3,oc,5461,0.9636435361668559,0.927279160920957,0.9470806561105881,0.9185752839647249,0.9204605617828552,0.939948177859832,0.944906657632414,0.9373632803079051,0.9100259514308656,0.974155182325357,0.9527200004507387,0.9468481243792606,0.9634602724848995,0.9842966979775051,0.9874752357538519,0.9282992502072012,0.9290910365348736,0.9656181426388327,0.9780329295965662,0.9791460607961838,0.8067647252624252
30_01,c3,oc,5526,0.9597642750216505,0.9299000908067514,0.9513251900995426,0.9178132324826161,0.9397567937604546,0.9290837801857476,0.9510225317632688,0.9526166041317525,0.9159963428430662,0.9795018145368014,0.9608864660931085,0.9694413351693377,0.9636308742469588,0.9823406739699498,0.9883965294490787,0.953548620084688,0.9374065151349489,0.9591534122073138,0.9787975096529485,0.9791099502332405,0.7854262767074327
30_01,c3,oc,5591,0.9528969132678513,0.9140175855925924,0.9400965987438252,0.9092258124538253,0.9316345462485839,0.9215719214722645,0.965370162418796,0.9521503534725139,0.9160244378650507,0.9833301503129979,0.9646194687674452,0.9689096559456968,0.9640389712329577,0.9787410020791419,0.9905668154380479,0.9615950525714064,0.9365085701642146,0.9463363158489992,0.974317368147058,0.9830806579720383,0.7452602962495809
30_01,c3,oc,5656,0.9452316025515067,0.9071672139777469,0.9495737973160557,0.9172089549619099,0.9416889296288143,0.923009481801832,0.9640017505949654,0.9407705298138558,0.9025408226494304,0.9792062348186522,0.9678680992229038,0.9623077858262208,0.9711803904277283,0.9762230659834114,0.9860861431962129,0.9586434571496093,0.9466049266358596,0.9333765392766709,0.9629023059481655,0.983614378108508,0.7542695936378704
30_01,c3,oc,5721,0.936850052544922,0.8879855691777429,0.9452343371497653,0.9074035390999006,0.9304720100838182,0.9336494099152385,0.9508019200350478,0.9248006434059185,0.9036127523657793,0.969799101107386,0.9638413205170446,0.9669955457749311,0.9706371286006203,0.9719141992570363,0.9772882296668539,0.9584380803758632,0.9506833723475345,0.9415308906123472,0.9650619047793502,0.984069971291306,0.7627780226695677
30_01,c3,oc,5786,0.9328175996000975,0.8904570838563607,0.9293383263735557,0.9022610619349751,0.9496883399185007,0.9386370752403507,0.9451096476075719,0.9303276673939769,0.8904596666577121,0.9556831500865759,0.9597542947811196,0.9604929692065676,0.9711948812203145,0.9697121974152659,0.9638031669349569,0.9436359513444692,0.9379033705284185,0.9474652138014483,0.9511268412780108,0.9792081498025554,0.7634006845637314
30_01,c3,oc,5851,0.9517885221432568,0.8838324460962472,0.9100552946325631,0.8997975601966263,0.9545775858592299,0.9504331614756,0.9315262134913207,0.9242641980627255,0.8745122206088627,0.9495462396962931,0.9618391921625878,0.9422301507515343,0.9695650473746454,0.9714506228188959,0.9637428801269214,0.9161988200115325,0.9319038906255278,0.9561366283175573,0.9491059645247794,0.9734139693318359,0.7812289448907053
30_01,c3,oc,5916,0.9600731426329175,0.8837655747893107,0.9017397578203541,0.8943313588124281,0.971936581301475,0.9508192119492016,0.9181247901045402,0.9389141740160365,0.8517562877368848,0.9421791241791458,0.9539245263078321,0.9377366152636876,0.9643922309400792,0.9747250839425424,0.9707677545106996,0.9131591762184551,0.9285029907384356,0.9612846411440223,0.9405850315426889,0.9730685940408488,0.8070988969577146
30_01,c3,oc,5981,0.9656211395167801,0.9027562567130598,0.8985512997068047,0.8921840137770475,0.9723095246604041,0.9574214840863374,0.8990828010125539,0.9439483900757751,0.879527171207859,0.9407339471491047,0.96181885047752,0.9359753001705495,0.9733707721220024,0.9779514203510363,0.9841494528982296,0.9276932904856215,0.9250232571840323,0.9641595731788284,0.9544671641086586,0.9690926727426665,0.805737525890197
30_01,c3,oc,6046,0.9643190551370706,0.9116733663598373,0.9108561735507755,0.8911242667786307,0.9678196138515252,0.9582180764468375,0.9239409580587671,0.9500663584493814,0.893804356366108,0.9607552947978477,0.9693236296955865,0.9298131682962518,0.9815368014173447,0.9814190494912626,0.9893424444642163,0.932439294706276,0.9262521470963562,0.9584847485366783,0.9546488445364611,0.9769795103875643,0.7927735417336217
30_01,c3,oc,6111,0.9731581464565223,0.9107901307861604,0.9321755972549621,0.9056889851084452,0.9568622223130618,0.9634047083858233,0.9303652147516528,0.9576971843893933,0.9125938877286536,0.9740829913894467,0.974644446548616,0.9382884897483033,0.9889605679313099,0.9885802474879315,0.9936920427891535,0.954629995968719,0.9346484789009118,0.9647859869677591,0.9604701625985606,0.9770951150366447,0.7877804191621347
30_01,c3,oc,6176,0.9563352983521615,0.9061346581007453,0.9487605789604244,0.9238202587438511,0.951661418154883,0.9577088575077027,0.9502527415524471,0.9564311712463521,0.9107288184748176,0.9834445098801683,0.97498160954585,0.9392688248928466,0.9879629772769722,0.9899617683806659,0.9920195638346045,0.9710779260402551,0.9544140471702341,0.9611000598187124,0.9579901484479384,0.9815437571404578,0.7675154180774216
30_01,c3,oc,6241,0.9456533986689197,0.8990386250398336,0.9554710148287722,0.9265125621477395,0.9013609402671117,0.957027276039534,0.9654700696652776,0.9517185366216191,0.9205620027586845,0.9846506119406956,0.981841560298989,0.9437711324097529,0.9874110754946217,0.9850067955214153,0.9900835343378939,0.9728369353089207,0.9618877934388064,0.9601902605310568,0.9571837054215679,0.9821637670171659,0.7547169237167253
30_01,c3,oc,6306,0.938432691995001,0.8805893609254389,0.937981589606459,0.9313427178128956,0.8923638127515202,0.9670856166156316,0.9751809070834588,0.9531979994107931,0.8950860281990306,0.9822144672710202,0.9782316311226971,0.9373419354970739,0.9790375423606952,0.9816388132080143,0.9807541948303089,0.9623347827724957,0.9568337968322925,0.9534625561586592,0.9619363151100979,0.9864057407064596,0.792843822354945
30_01,c3,oc,6371,0.944939280869848,0.8787932639615599,0.926983557996272,0.9331013785557909,0.9081000640516568,0.9605632672994987,0.9715301529712418,0.9321769247234812,0.8821176995265354,0.9786089880307556,0.9671351169641065,0.9334468831842815,0.9767320485956744,0.9752336894320659,0.9780681095074856,0.9501437337676913,0.9537194481397059,0.9596509441111246,0.9547632431934202,0.9861728090988907,0.7962493217206317
30_01,c3,oc,6436,0.949237900300862,0.896145411217252,0.9279531733228991,0.9287660235585198,0.919797750314922,0.9731908700017297,0.9680390574290234,0.9274400571367799,0.8758915286256574,0.9830955674255498,0.9681761378435544,0.9260298105474116,0.966387940063132,0.9696852410548804,0.963297825938028,0.9314557110373607,0.9666031645154144,0.9657466454760731,0.9568656917477765,0.9802248126756251,0.78731506881559
30_01,c3,oc,6501,0.95962616219119,0.8803523037591002,0.9126476036694454,0.9194606935680771,0.9106071861929438,0.9704043077290913,0.9671433854337348,0.9399336338140504,0.8707689589017369,0.9728641123244766,0.9589943877940856,0.9074024871449162,0.9484893231648517,0.9643136915601188,0.9618336696222276,0.9016061291578412,0.9522202207496767,0.9567186455578498,0.9553491815880403,0.9781201100585113,0.7741904905185029
30_01,c3,oc,6566,0.959197645118432,0.8922195410491094,0.913836199555664,0.922653642857403,0.9494748541715201,0.960050613466107,0.9619344495068765,0.9343303616236599,0.8568629123653402,0.9677360421112872,0.9519178087743871,0.8876150656009114,0.9284252110948911,0.9772197140625479,0.9725509912303375,0.8662927349515963,0.9415257711556088,0.9628775892660484,0.9490383756392806,0.9806803224498242,0.7852909573933892
30_01,c3,oc,6631,0.9554952180434684,0.8850775354683419,0.9169608681503174,0.9045760693212548,0.9423829745505659,0.9435244034985864,0.9486551841810741,0.9199010181398397,0.8686135386785568,0.9639918413205876,0.9396378066531849,0.8772189352766842,0.9266891068817226,0.9779964350270322,0.9694823365818543,0.8553980935365649,0.9377591951498248,0.957576796871914,0.9426984463138687,0.9842299159612402,0.7762960203463044
30_01,c3,oc,6696,0.9355993055217325,0.8875252501685775,0.912518429760206,0.8874331949436877,0.9300398715678688,0.9383694204751004,0.9432367018670291,0.9264462862538222,0.8589806621628241,0.9507357254947527,0.9259612846105696,0.8703203005746801,0.9054765362233615,0.9677978443251674,0.9651395021975139,0.8502060914468202,0.9222512868439611,0.9393225404199794,0.9377286427761308,0.9826748686409943,0.7758064245695054
30_01,c3,oc,6761,0.9162369209054536,0.8523033693187246,0.8985103206801425,0.862696252361562,0.9159276681733589,0.9131417212439634,0.9442569105226594,0.9142708318193047,0.8569730314434648,0.9400794335794462,0.9082400094076593,0.8514451830171545,0.8769595962530379,0.9544814062396416,0.9604838983411358,0.8245978970370472,0.9048112001584777,0.9213026966192599,0.9213915632855681,0.9796797632747016,0.7905715685294282
30_01,c3,oc,6826,0.9117098902945368,0.8886569693078323,0.8991472428340427,0.8586153490721806,0.9347702784288509,0.9373246634289097,0.9596193560973773,0.9142027617400867,0.8785512715801242,0.9439604037648159,0.9107508015672925,0.8660846775514757,0.9100297433096749,0.9452057379178765,0.9659174468119517,0.8364938891420682,0.9135813384702912,0.9310482782265286,0.9338774601816721,0.9769491116043895,0.8178715536833233
30_01,c3,oc,6891,0.9303776979886179,0.8862651040412869,0.8852639220053644,0.8467470311336966,0.946036154272935,0.946734979129192,0.9629647872467451,0.9322162295351452,0.9036578962708963,0.9461200823818575,0.9288390224374967,0.8656243541258739,0.9221142994117582,0.947660324870523,0.9564586675171961,0.8603477943634306,0.9058548225024007,0.9294308952035538,0.943445039850621,0.9782812235145238,0.8025158045238852
30_01,c3,oc,6956,0.9427127633568021,0.9095065868683038,0.891942222633208,0.8732661135503283,0.9627810177656625,0.9541743669440168,0.9735489679758741,0.9521064444098779,0.9067958673487612,0.9469940335290498,0.9340236769084795,0.8813219194914258,0.9433314465416078,0.9469387219036142,0.9595707614706145,0.8840454270039091,0.9267024506541521,0.9383494140794998,0.9407269492207204,0.9786830577029676,0.792606578670822
30_01,c3,oc,7021,0.9629962108829111,0.9197110538708593,0.9093690014340088,0.8866306250779846,0.9632783566433634,0.9672797688274535,0.9738661228286281,0.9565406434735139,0.8943669100983241,0.9605484544717974,0.9568772683416852,0.8781017621587394,0.951047159640227,0.9593653818400277,0.9598256093712527,0.9008920013367473,0.9322786708533157,0.9559553451097415,0.9562441589610465,0.9747209514102109,0.7820564003857435
30_01,c3,oc,7086,0.9698137471888634,0.9340790434920302,0.9177624450209948,0.9007141883083799,0.9585509275808175,0.9681041403697207,0.9600201764325801,0.9537037615427592,0.902613818674124,0.964949204251818,0.9708754000206891,0.9119318438514467,0.9608551297391633,0.9719508127116387,0.966996239108099,0.9256503714181248,0.9284976286237232,0.972903469446854,0.9668028039035642,0.9729652248245372,0.7984594266521972
30_01,c3,oc,7151,0.971010920986565,0.9216517868010189,0.9231403495752168,0.888769410392748,0.9579540580064715,0.9579617321396257,0.9491217679409842,0.9464724977363981,0.9010727908953898,0.9708404800549334,0.9668959124381596,0.9137974035760128,0.9531794036283099,0.977630641680636,0.9698265278408481,0.9235269216029832,0.9313667987400879,0.973235080034843,0.9521913240867464,0.9723524104375082,0.81015875824222
30_01,c3,oc,7216,0.962681501305691,0.9195058880832438,0.9191269041987532,0.902441499334057,0.9457728351238068,0.9641249293642512,0.9467314544428485,0.9386782755245305,0.889509142460856,0.9738208231176163,0.9644384147737978,0.9226297667299744,0.9575125800605403,0.9830994134829057,0.9824698262015246,0.9211829146053326,0.9375997496449161,0.9599083706948193,0.9586567147389178,0.9790616149288939,0.8254637714311577
30_01,c3,oc,7281,0.9577640839292372,0.9163126848900239,0.923014955634723,0.8905909824261207,0.9274796840096464,0.9676469438512436,0.9372875517642532,0.9290226834311093,0.894132192526305,0.9683310520468713,0.9530965247123695,0.9373221732063575,0.9535551335157945,0.9785021756953867,0.985854630388048,0.9012943497521456,0.9139706888748311,0.9483879901709027,0.9624788650870031,0.9775339383961281,0.836180469530597
30_01,c3,oc,7346,0.9492918273642055,0.9108236758769933,0.9184800178557772,0.896089093459951,0.9063149057860129,0.9634774836181447,0.9303216775676898,0.9067627940669248,0.8963861688818762,0.9751840110605813,0.9482158385022659,0.9453429049308963,0.9406266181125678,0.9746349725348663,0.9865684790803777,0.8807540651423988,0.903764341744893,0.93192242480637,0.9639904043688825,0.9771377247682946,0.834451002879106
30_01,c3,oc,7411,0.9548423788337191,0.9221771548442119,0.9258088184932514,0.8916377146503628,0.9294015379435109,0.97190223409197,0.9421805513382868,0.9236837547969629,0.913132709989997,0.9660743807055574,0.9275845638548785,0.9307363663530872,0.9238917046526275,0.9729093620649805,0.9802591042355648,0.8406759247832704,0.897526386070858,0.9261413659127783,0.9577858711054513,0.974914005750604,0.8260400346130166
30_01,c3,oc,7476,0.9370493488234534,0.9098866075063569,0.9259864897012983,0.8967173702579078,0.9160766247003529,0.9627343416055086,0.9490070580434405,0.9196382853612097,0.8979750181520728,0.9587634299903631,0.9263754155147307,0.9118372199164925,0.9077852031711477,0.9654256091547863,0.9754168687736009,0.8319079451261974,0.904555905602212,0.8945522993581619,0.9441602604805505,0.9696407493751757,0.814525857800244
30_01,c3,oc,7541,0.9205579893719502,0.9017668485239977,0.906223564578746,0.8793241707416344,0.913933920396531,0.9456747115000042,0.9379110606776427,0.9151758849212001,0.8734169833430199,0.9281745711405933,0.9192035862221307,0.9019410029773968,0.8791361310535337,0.9424763806225813,0.9571638733377764,0.8174553725782389,0.8790862103323818,0.8899771462999969,0.910861979749662,0.9570382214729559,0.814077299467027
30_01,c3,oc,7606,0.924906524028333,0.8888322591806159,0.9049591186738022,0.8947464696299132,0.9108983171161606,0.9434869579771998,0.9256689332758891,0.9095030888201905,0.8693752921894752,0.9321446971029952,0.9309419574993701,0.866578815774914,0.8625682856094324,0.9500455919701227,0.9511831944736815,0.8164738585680935,0.8934270813499675,0.9176149660150026,0.90381956458011,0.9642771350647926,0.7859760535819421
30_01,c3,oc,7671,0.929672616490458,0.8776289239523775,0.9056172622066286,0.8807909508628272,0.9154334806646791,0.9325049887048534,0.9180064050859054,0.9088296745974007,0.8613339747506094,0.9127587556128408,0.9201957360604989,0.857283982030858,0.8551532731606893,0.9493625370705141,0.9540518384841008,0.8139754327464053,0.9048412225836515,0.92081442987686,0.8795561633177807,0.960410958361505,0.7960616261017622
30_01,c3,oc,7736,0.9187035558480706,0.8714615928128977,0.891830921839384,0.8735815860071733,0.8904580340190014,0.9128824608301079,0.8999637450013555,0.8908553937199909,0.8395559087130672,0.9272785577723511,0.9296652343747002,0.8604014360326914,0.8583370635686045,0.9458623302303839,0.9657456612192362,0.8207525811331128,0.9109004209521147,0.9213629272363875,0.8915742315149965,0.9715730345533031,0.7800998788255141
30_01,c3,oc,7801,0.9372625117061104,0.883195905419712,0.8904377024617616,0.8704677778455954,0.8766148333118812,0.9189775937700015,0.8921106223646136,0.9046102125908758,0.8433210214030432,0.9304234829326212,0.9360809774019416,0.8519194108902487,0.8810839934334194,0.9570301527900623,0.9751685694067004,0.817654826035515,0.8962001060888328,0.930504180616079,0.9074446531706408,0.9687523076179173,0.7956960984312522
30_01,c3,oc,7866,0.9458257461263251,0.8860072635306075,0.8922117310135284,0.86385472725543,0.88367906340561,0.9183657729660378,0.9090544278157184,0.9179492711742779,0.83882909336422,0.9509031151688804,0.93349378108242,0.8378607552500349,0.8861855985146346,0.9638415114712321,0.9766881612124942,0.8116052895342007,0.8893995110005186,0.9289503951557181,0.9201076590773506,0.9802112713072145,0.7968586117415132
30_01,c3,oc,7931,0.9447575798922335,0.8923334758396575,0.907394013027179,0.8289921350267342,0.8964978946299088,0.9355579289825362,0.9305427166854416,0.9306421680862494,0.8395576888825507,0.9554265390947806,0.922310072653638,0.8331318966050536,0.8726767733338062,0.9642960242831833,0.9736715911341272,0.799330229225532,0.8826491000414939,0.9132543140562441,0.9156661223882276,0.9842563694722739,0.8086081619094512
30_01,c3,oc,7996,0.9512259409486464,0.9155911810505077,0.9087570272160557,0.8470641546628934,0.8959900521887938,0.9475957574778634,0.9374131379685529,0.9279563814907545,0.8687772958305297,0.9597678002091783,0.9341891568486536,0.8388294476477368,0.8904864562394051,0.9602129016996368,0.9685846547404876,0.8099914929375883,0.8875703235819965,0.9063546031909855,0.9255156625341167,0.9838780157042548,0.8067074975079869
30_01,c3,oc,8061,0.9511893059902632,0.8987081781290428,0.9056788085397808,0.8627117404073285,0.919810448244679,0.9645659254799942,0.953747194472035,0.9372052976849514,0.8647162879078837,0.9565675741578054,0.9379627556735877,0.8451100848031732,0.9069495483299403,0.9476791268803176,0.9647506098380156,0.8231177262793332,0.8848627489467497,0.9078722530981169,0.9179577293296922,0.9821670714427799,0.8110643192224977
30_01,c3,oc,8126,0.9459548584570631,0.8905438630576044,0.8995980351928083,0.8429295379189514,0.9312770901309742,0.9672465507865275,0.9435068433927856,0.934407360801885,0.8644709824312888,0.9591919722009854,0.9218064692314968,0.8542714746272767,0.8865309013328746,0.9458055471810705,0.9665146010007643,0.8145812704799026,0.886396020473356,0.9224698774531555,0.9160835871251178,0.9828608595795204,0.8176761970580074
30_01,c3,oc,8191,0.9549342292734665,0.896258637321784,0.9025868928236623,0.8389220789437887,0.9205036925123895,0.9673105412324943,0.9482996906350156,0.926621934177873,0.8850675333358552,0.9423742620407043,0.8903467900044362,0.8590845604215314,0.8945565103738912,0.951996929726881,0.970144834008775,0.8033764417006098,0.8875811896558392,0.9374422034625205,0.9223191517436106,0.9827326886739929,0.8023204495615147
30_01,c3,oc,8256,0.9645911173633995,0.8922526777490465,0.8926467676244919,0.8608914833043209,0.9179916038982504,0.9530700207251972,0.9382381040973713,0.9222865124588583,0.8833823265389504,0.9305008308311781,0.9001132749712414,0.8442861342185034,0.9197537897286518,0.967112832260644,0.9781247985190241,0.8195310117121727,0.9057034954317214,0.9494008120505277,0.9299567155297276,0.9784260784085466,0.8147654488135405
30_01,c3,oc,8321,0.9631900378902553,0.8882910318902448,0.8897260021120073,0.8672691773079,0.9233135281362134,0.9554995849083388,0.9484199956354886,0.9289597000807367,0.8872966652417724,0.9453565502719131,0.9093384997581532,0.8697571355458289,0.935332276288194,0.979777450969555,0.9833043869982835,0.8420778124438162,0.9180430233151294,0.9663154695065179,0.9382492107311243,0.9767592820208693,0.8189717241933283
30_01,c3,oc,8386,0.9652875981013977,0.8971040994648777,0.9108860235938536,0.8761116914046696,0.9294961145118731,0.955421817908308,0.9522434946973004,0.9461836315784219,0.9069295170881887,0.960727272325004,0.9249013707029367,0.8780442700371499,0.9522001404873008,0.9826970579675267,0.9852458092221595,0.8565660014580884,0.9199016945891292,0.9645784251891452,0.9457727969964952,0.9839599170763162,0.8343185961866529
30_01,c3,oc,8451,0.968082743170974,0.9069545420390923,0.934174574132565,0.9086638818063976,0.9435354167783672,0.953529618440363,0.9700767856060716,0.9495649226664526,0.9112184410410747,0.9741458885183601,0.9595138915279744,0.9165940147030576,0.974242911329506,0.9882833730639349,0.9824413640514432,0.8938577977401385,0.9363754823887418,0.9598477635918232,0.9639226211927285,0.9877359810124028,0.8196531512431265
30_01,c3,oc,8516,0.9656420904168084,0.8944344377313025,0.9351335433364126,0.9265911465681906,0.9578079261368094,0.9663692761955023,0.9722143805013768,0.9569504535461791,0.9020190969619015,0.9832468365448749,0.9761916337201163,0.93877554919977,0.9776416524876654,0.9884978938324438,0.9767225732269993,0.9245865231313547,0.9495215848970228,0.9620801601058191,0.9730828776450027,0.9845622569420203,0.8391452957647728
30_01,c3,oc,8581,0.9724336108009543,0.922286509578346,0.938882806277313,0.926512933818475,0.964651581550173,0.9816778124442697,0.9761189897112477,0.9685344660309169,0.918904863574215,0.9837386290957753,0.981632817691385,0.9425432746073912,0.9812662751392353,0.9873097612254603,0.9741663880860681,0.9421535463046506,0.9504208919151846,0.9693045033483566,0.9745025533725941,0.98887705565208,0.8316989063325473
30_01,c3,oc,8646,0.9745076839342733,0.9336378093983958,0.9470740830245291,0.9322845187656085,0.9646681741492322,0.9822730622713339,0.9774067584825363,0.970451065910386,0.9223188668566048,0.9818352432785318,0.9785203428952318,0.9550175883738495,0.983908178924859,0.9827358896434567,0.9769935136956106,0.9480289080913631,0.9475301991861291,0.9706393440159199,0.9811392346955098,0.9791714820208092,0.8121389464788886
30_01,c3,oc,8711,0.9726464724632385,0.9282683888835483,0.9343367579975219,0.9331225246203879,0.9548120587069283,0.9778257950009367,0.9678040379263932,0.9490628236673593,0.9156892107494548,0.974250814968538,0.9744776808936185,0.9575796036383204,0.9831481574308543,0.9797916365089891,0.9827523019807632,0.943840306721061,0.9632224946885436,0.9744933449570559,0.9812691403961901,0.9756879606422353,0.7848145106855515
30_01,c3,oc,8776,0.9735657272325936,0.9379974427845831,0.9324654110773626,0.9391343487553268,0.9490460109964822,0.9769248418208816,0.9568887605589983,0.9560425406060321,0.918661659588524,0.9689073477021819,0.9779548956613612,0.9484569908686477,0.9801743864715965,0.9858467641689724,0.9856757920656455,0.9637140865204473,0.9727674709539313,0.979017051764624,0.9742568475896358,0.9801008362255731,0.8089682725498868
30_01,c3,oc,8841,0.9712472513321958,0.9412157689175159,0.9322411519223466,0.9289941445552544,0.9466149717360275,0.9758866379012944,0.9450389010587424,0.9531530950778597,0.908870170645151,0.971671247832869,0.9701849556317828,0.9404619972396552,0.9808039566368472,0.9873500858387737,0.9862342000465489,0.9422155347135002,0.9645223978235654,0.9812483518735893,0.9687027598866867,0.9803008856439425,0.8052259639345369
30_01,c3,oc,8906,0.9594694345266677,0.9178505741617914,0.9307013524354906,0.9110736492278271,0.9467476558946094,0.9764289037457152,0.9237300999352638,0.932127081096325,0.9021608884836114,0.9801995126751529,0.9701900709693427,0.9534389569297878,0.9739013959741851,0.9871740300412274,0.9859858938605455,0.9259754524027739,0.9620383431885136,0.9711733746781192,0.9688140343463147,0.9844044405765484,0.796605550330857
30_01,c3,oc,8971,0.9419227413551385,0.8899565637398743,0.9323894093846881,0.8837737017799064,0.9448605531320461,0.9755818297055716,0.9219696064171091,0.9162729097465012,0.8813061127074414,0.9746785066851519,0.9602994780841082,0.9393979753780881,0.9679634057751338,0.9848444218966244,0.9820676101055329,0.920780425013022,0.9576134117011844,0.9586698856641153,0.9561188652340397,0.9814202889942679,0.8343963559949685
30_01,c3,oc,9036,0.9470497033234963,0.8879793825429888,0.915137679022025,0.8533079202156342,0.9534139102439944,0.9795666424878882,0.9330595677684115,0.9167799473479444,0.8654741346588429,0.9688631485203036,0.9463841416676153,0.9357526859251475,0.9570508116890806,0.9848489531574792,0.9764013731222361,0.9185559975976888,0.9450440390644631,0.9476064816979825,0.9545401355039204,0.9835388034610946,0.8179339488948831
30_01,c3,oc,9101,0.9381677642371067,0.8591222817739622,0.8982476069171256,0.8597257741686865,0.9417396475233326,0.9756308969328261,0.9261453533478634,0.9136272304309568,0.8495769706515843,0.9628227336755911,0.9401784878219991,0.9342858729104367,0.939350917732973,0.9774134344600974,0.9751194056546164,0.8835336748284967,0.9155773895539595,0.944004026625358,0.9439727857699667,0.9842423263412714,0.765087402147956
30_01,c3,oc,9166,0.9397680901371097,0.8802339440930506,0.9008450731916533,0.8648583309746692,0.9485134471379868,0.9542897491796144,0.8995006257717063,0.9184012895252389,0.8472565384119652,0.9593059266089206,0.9515749235692781,0.9256615137028876,0.939560240578541,0.9691241270216465,0.9721112842766954,0.8994299769455764,0.908946651419863,0.9355211513491507,0.9442984831871264,0.9848112105856621,0.7659469669314944
30_01,c3,oc,9231,0.9585822768759363,0.8930215914096068,0.8960572133616961,0.8762391726093125,0.9458672315029965,0.9565039432695149,0.9009472689538798,0.922758972287957,0.8581670301837007,0.9633639951074635,0.9501822398278055,0.909009849322853,0.9586057287939858,0.9788437570052351,0.9806822077753113,0.9166214038681438,0.935325993460163,0.9704325856146312,0.9531415595169336,0.9774660963358098,0.7834115820806515
30_01,c3,oc,9296,0.9623929150573275,0.8947616489430456,0.8856202358284453,0.8934343163335353,0.9521469915568315,0.9467432327628645,0.9093357014696027,0.946117984151243,0.8640519846911271,0.9710046983520232,0.9666446590204636,0.911325520291631,0.9758656125388514,0.9768311271725901,0.981414418759262,0.917242927736583,0.9370685596782298,0.9792401986066415,0.9546580090166721,0.9806377592138428,0.7849123111640319
30_01,c3,oc,9361,0.9539788954437309,0.9166823310970115,0.915384049869885,0.9188274998460151,0.964943691385051,0.9370076950289765,0.9063178781926707,0.9634980515031613,0.8768561091488382,0.9810867780957547,0.9767238339632447,0.915117886876686,0.9842574094214044,0.9822795769744599,0.9859707028860772,0.9152884177310214,0.9458277636195247,0.9858978938506382,0.9741115392699594,0.9800569102794632,0.7953084620374267
30_01,c3,oc,9426,0.9584211931079878,0.9360168100663688,0.9266926058779681,0.929440549537028,0.9744485698830988,0.9522928914335869,0.9347436216564005,0.9680140403680976,0.903145277258958,0.9855400273486197,0.98207305364333,0.9330319529605856,0.9845848548091828,0.9804834279027896,0.9855169116588934,0.9293718945502868,0.9503779081211636,0.9780661568266877,0.9791853104381651,0.9831864689833467,0.8210420182996601
30_01,c3,oc,9491,0.9577906760084479,0.9338343926006565,0.9186264533256286,0.9338891115705096,0.9729560473282746,0.9575640366690539,0.9510421899636317,0.9689487646700116,0.924886168423309,0.9879110245171108,0.9722678728363133,0.9403496653309238,0.9794255592031655,0.9818536899931409,0.986079923354092,0.9390784301635733,0.9487969514741419,0.976648218539716,0.9761902987687647,0.9810276916518854,0.7827710751927116
30_01,c3,oc,9556,0.9607096002184233,0.9333177700207632,0.9164536930632293,0.9357856471143811,0.9786917951904669,0.9692837620183706,0.9662470617700557,0.9691345962503671,0.9233460786717964,0.9795176090718694,0.9666708994612156,0.9447910105661448,0.9766244014764679,0.972346834043577,0.9843037472282735,0.931762656733698,0.9278845039465721,0.9586296226205769,0.9724666274662229,0.9868214694391625,0.800015997070323
30_01,c3,oc,9621,0.9691448816718026,0.9374307815676276,0.936368475591785,0.9352837570399274,0.9704243674436531,0.9754889300035152,0.9689319591018667,0.9662035066562288,0.9472150699459535,0.9798961489165692,0.9600700883972223,0.9276429047620084,0.9699982780335125,0.9771745481757909,0.9794266047842419,0.9200637217776599,0.9485631661239285,0.9703950972826911,0.9786756903549141,0.9882314269945863,0.7903591478868041
30_01,c3,oc,9686,0.9689486750062819,0.942937175597819,0.9320130120524913,0.9302747701634712,0.9626425542067417,0.9724393445817368,0.968865188452487,0.9583418985869633,0.9372619203377168,0.9768438154948307,0.9672380143571698,0.9131881732902588,0.967393052152771,0.976317200789109,0.9778267948152554,0.9171871925362114,0.9503836584256508,0.9634659202069694,0.9690276301563503,0.9785505243691591,0.8160050594804704
30_01,c3,oc,9751,0.973767731155595,0.9353090904911293,0.9340896594761945,0.9209493653106696,0.9578861459081509,0.9715557989948795,0.9625237141724614,0.9650813875523042,0.9343396334922911,0.9679810637717948,0.965646878568613,0.8936464438826538,0.975670525039073,0.9698189435041038,0.9786909738941454,0.9370242087553419,0.9621845809257491,0.9734554351846972,0.9666131548534561,0.9795188942931924,0.8175086475812923
30_01,c3,oc,9816,0.9703119269235262,0.9402145336459271,0.9440590380860371,0.9180491782764856,0.9606325383048308,0.9604207201424199,0.9572689739883429,0.9667348286364956,0.9383936815109242,0.973433976670602,0.9645587972919085,0.880658503575992,0.9790037478614728,0.9802468608567647,0.9818796319766702,0.9344640478663302,0.9612746136419842,0.974699389925543,0.9643580092140089,0.9807505661626528,0.8307071186315278
30_01,c3,oc,9881,0.9681304969653963,0.9412488762905445,0.9488520897418466,0.9077847383703157,0.9512764286807959,0.9329306986567142,0.9341902468195605,0.958160219404744,0.9306652249241495,0.978157109447487,0.9610259894192202,0.869397795608001,0.9836319603196335,0.9866729193218902,0.983150215352297,0.9293587216803761,0.9600345908162868,0.970975107645523,0.9658595473905082,0.9774067968649479,0.7977306973777631
30_01,c3,oc,9946,0.9664055629521238,0.9206802730390334,0.9320112081277638,0.9040904524970991,0.9621012498553475,0.9153329958637081,0.9335266654035053,0.9534148586956358,0.908393885020456,0.9706991349889906,0.9532190268558668,0.8769102087122845,0.9777445120503776,0.9837571390989538,0.9824189876925401,0.9368322953078414,0.9379832745604375,0.9400613130032498,0.9524744991287054,0.9800335257319956,0.7932214255967399
30_01,c3,oc,10011,0.9468447237618127,0.8991486350307765,0.9308812682917897,0.8929178610494484,0.9722265231674856,0.9116968294785048,0.9417333167830477,0.9653300421827068,0.9017469480351349,0.9692916101171836,0.9429764765686696,0.8873229203277252,0.9747825785370469,0.9826517441339732,0.9842579983900793,0.9348999363978318,0.934137755675648,0.9346959839493695,0.9567754562771394,0.980929156742547,0.7541920822401655
30_01,c3,oc,10076,0.9492717703888882,0.8892282523383763,0.9226277953606794,0.8975752529440544,0.9797581810248163,0.8979790829121415,0.9409600066832976,0.9674418410295715,0.9031013922603547,0.9696082805370111,0.94196187588513,0.8767541171929241,0.9623194612152948,0.9734237422584282,0.9835123207973178,0.9212998597309009,0.944342105204104,0.9323196641217113,0.9563623170177862,0.9731382111361297,0.7581511334111218
30_01,c3,oc,10141,0.9598287863392176,0.8962290182432168,0.9134800240250902,0.8966728359276958,0.9757645621821879,0.9256306975212104,0.9453223809494286,0.9645816493404048,0.9071647798577589,0.9792855778278067,0.948172302357365,0.8894189817880633,0.9506085278535213,0.9742168031744449,0.9806029195366616,0.9005943251794188,0.9470551310518007,0.9523353378703485,0.9597256447784164,0.983462264317274,0.7721638121925792
30_01,c3,oc,10206,0.9659321772050723,0.8828647309604148,0.9070143208324932,0.8945334418864304,0.9746647903016564,0.9331285385423493,0.9430598222309506,0.957296797782989,0.9089028740632366,0.976912447558289,0.9508888877067818,0.8958701348715227,0.9464012162260327,0.9636545447836272,0.9714849272311978,0.9060659781733905,0.9513222673954319,0.9587033945040137,0.9501356721577177,0.9832982176654699,0.7657128833797956
30_01,c3,oc,10271,0.9650454658826398,0.9058688227644295,0.9013420604951115,0.8933296716314019,0.9563369385384921,0.9458898737337076,0.9330396778109254,0.9423777738108244,0.9054619747787096,0.9759532294351605,0.9626400531096848,0.9078741626515098,0.9466356373207375,0.9673602583216984,0.966098897793991,0.911517341238254,0.9505410542388376,0.9712011997288441,0.9484622106652708,0.9827200413236578,0.7349043183992482
30_01,c3,oc,10336,0.9723056333280489,0.907535102059831,0.8900768651562898,0.9165718996340104,0.934633320248527,0.9433323997795859,0.9021747774883501,0.9277524113436765,0.9188302552261344,0.9670953835713473,0.9575653727942277,0.9050852779187786,0.9445136970028775,0.9633569578546797,0.9727750937571157,0.8992093966066022,0.9414357717882137,0.9704583133113349,0.9447679243598616,0.9823294343990998,0.7606258901342416
30_01,c3,oc,10401,0.9531262564562522,0.8900439243544065,0.8881046474394142,0.9031261934032047,0.9005974871452641,0.947391540412705,0.8823107104513325,0.9082529326362805,0.9080108594304448,0.9683930634015088,0.9443271211572267,0.8985365835349528,0.924865128621883,0.9710776411866104,0.9752258078533989,0.8779430504309449,0.9136613243979527,0.9573752625242341,0.93402964162968,0.984370293692685,0.7290197865692688
30_01,c3,oc,10466,0.933751343727179,0.8796844881654595,0.8607561693062495,0.8983100374359714,0.8747976431206376,0.9301752496502361,0.8909893649899143,0.914637100593822,0.8801105617540168,0.9576223812564301,0.9423935648673943,0.8831777973173026,0.9117235054119115,0.9604814952430981,0.9773967160553476,0.8735295086883125,0.8868663889172896,0.9390045441986277,0.9233575882733908,0.984097942143078,0.7430283658496244
30_01,c3,oc,10531,0.9196807558280012,0.8629913490493499,0.8693352942447352,0.899455850043204,0.8792827974194501,0.9260683851199064,0.9025398069888957,0.9106292582775627,0.8753116157651603,0.94613430838859,0.9251298982213577,0.8852307180112815,0.914142281351974,0.9587984849719611,0.968971521070551,0.879466164590196,0.8874616810880843,0.9306474011377683,0.9161938553516286,0.9857106117549547,0.7669580913630213
30_01,c3,oc,10596,0.9064746617420406,0.8439861683897805,0.8783808542167831,0.8872749054423972,0.8869316414582278,0.9220826549294878,0.9232663952151321,0.9121436201243159,0.8817511537932198,0.9249063210620795,0.902873605847197,0.865967963234466,0.8821815485486681,0.9482903293589436,0.9629195721952257,0.8452571161036406,0.8713435183971928,0.9052212471611452,0.9163333018786533,0.9820864108654422,0.7991473458884433
30_01,c3,oc,10661,0.9056867864144106,0.863999976784496,0.8847397912826778,0.8782479918815334,0.9111802181798812,0.9528873483255258,0.9558103132789163,0.9352045914706036,0.8827882650948247,0.9352201247514581,0.9230495510364481,0.8716531315260055,0.8978784756050169,0.9532287077269301,0.9659706740095205,0.845519799165378,0.8882115939490031,0.9100169226056842,0.9205964704525349,0.9851221212696301,0.8121245052128617
30_01,c3,oc,10726,0.928514104399825,0.8871698052098437,0.8941723792736821,0.8733761600375879,0.9162785585838298,0.9641639495080403,0.9567649002476122,0.9398015632267938,0.9036351781354586,0.9369298852336746,0.9176740453820861,0.8656619300222084,0.8970246283469634,0.9565018002517952,0.9642180178278313,0.8575391438864178,0.8977287792073242,0.9322090919002016,0.9265892681908003,0.9821611071663734,0.8312104143007449
30_01,c3,oc,10791,0.9448602746005885,0.8905768222245088,0.9139091447092441,0.8618576299167562,0.9189910334357975,0.9634300146121355,0.9627673444224701,0.9467355225294819,0.8996309954578279,0.935215988697308,0.917038226427144,0.8729621263500676,0.8996330773942415,0.9657707738997681,0.9638773570544743,0.861335090007281,0.9148788244224416,0.9424146487993768,0.9263596068311858,0.9797768996743148,0.839651952661654
30_01,c3,oc,10856,0.9414243284343335,0.8929332341415817,0.9097805126956694,0.8523944126107145,0.9162578642806558,0.9575384055726949,0.9593553125232573,0.9526955714350567,0.8891520731639495,0.9353445640081951,0.9250838314469105,0.8487723842400348,0.8991635448599214,0.9687024992192664,0.9787321781502579,0.843837203177746,0.9042397860565432,0.9426419765260332,0.9228859260270111,0.9785520403077075,0.8370010990338641
30_01,c3,oc,10921,0.9577773628078553,0.8918648040540805,0.9077452594442738,0.8673246498864297,0.8998055709628722,0.9527094744340692,0.9548822298280519,0.9407925579544889,0.8806451155840834,0.9518283074287633,0.9340234034765009,0.8395333080478,0.9005455347353439,0.9746407981524605,0.9869658630209898,0.8434508999130883,0.9045552228851205,0.9467886376273523,0.9174309931750279,0.9780226678392522,0.8263474751779271
30_01,c3,oc,10986,0.9584622844841895,0.8945506979916437,0.9031139943361332,0.8513710640383699,0.8624305625518355,0.9427439900314172,0.9392787458843819,0.9056757283706848,0.8602785693722816,0.9483611776829748,0.926040794190778,0.831173561350546,0.8863111979576793,0.9739698881142755,0.9855263059723041,0.8272369339238299,0.9088640125538602,0.9512210189895243,0.9139766732707028,0.9811086898297626,0.8168308927238677
30_01,c3,oc,11051,0.9623341902190117,0.889111551868545,0.8863915420274242,0.855234846330317,0.8714976089879608,0.9290952574127579,0.9297056361490232,0.9190397171944746,0.8554332427322856,0.9432714851638158,0.9313936089042256,0.8497467062952151,0.9269666780429174,0.9682695868050942,0.983900965639034,0.8573806005232514,0.9080669098001182,0.9460612635079754,0.9184456433632778,0.9800113447751743,0.81277063332513
30_01,c3,oc,11116,0.9500339836855832,0.8873994199019777,0.8574814919679087,0.8536340192576458,0.8938241641376821,0.9202630785552093,0.9173517053742364,0.9292072747457258,0.8406854174583887,0.9365689738847817,0.9335010295662625,0.8843304343541584,0.9441998271065939,0.9599481159106743,0.9865929660247548,0.8755382808877682,0.9003846546480182,0.9339658486044344,0.922507384659444,0.9796651181847381,0.7944745947622938
30_01,c3,oc,11181,0.9537392333602097,0.9025923513039134,0.8840773740761029,0.8840719210630313,0.9132947995389039,0.9241863524378012,0.9292024549351022,0.9502867949814479,0.8525173747351813,0.950565284792524,0.9497009914104884,0.9166632404257675,0.9607952439166259,0.9728242044726776,0.9920532952139303,0.908207614393176,0.9127804600281895,0.9466444475354882,0.9265668168115827,0.9832331898781956,0.7931410390279662
30_01,c3,oc,11246,0.9524774929269365,0.8855265579098385,0.8817013928191606,0.8744075754354609,0.9378206354670054,0.9233826047726547,0.9309883503199087,0.9583508647944983,0.8505967457543041,0.9511664166144594,0.9451967014279203,0.9266425781771517,0.967619960204813,0.9691733069992413,0.9927650256718917,0.9149389862201847,0.9055819891192068,0.9392162906083221,0.9298368145552414,0.9836077327135171,0.8078880508838944
30_01,c3,oc,11311,0.9526875334985785,0.8980444877997796,0.8918680813943838,0.8819979243210793,0.9479245874485338,0.9305782122978705,0.9387103025819508,0.967453320397732,0.8606271966007355,0.9574777352340885,0.9435485371087485,0.9353120163662947,0.9773448973478172,0.976277373169831,0.9888561619067964,0.9389188431197447,0.8971430536025942,0.9339295275000816,0.9498639342851921,0.9875853998959999,0.8172620468937961
30_01,c3,oc,11376,0.9337215558947197,0.8923710211080155,0.9115353575406488,0.8914883290594968,0.9463986522221016,0.9345195811957527,0.9520579726505036,0.9657949689690245,0.8510761421581953,0.9651944638390019,0.9577305047578809,0.9442791842802062,0.9666487984106902,0.9743329130961023,0.9873651165603895,0.9331594312081971,0.8991696563977071,0.9190173773986484,0.9478016747961879,0.9882976039689441,0.8337153861052236
30_01,c3,oc,11441,0.9395231653852039,0.8954267655954303,0.9217351870607771,0.8944365164314211,0.9524954801902457,0.9478976916465964,0.9641805491473706,0.9680738010680879,0.8648598865317747,0.9695305148607906,0.9604261929660153,0.9365855947547049,0.9728438822104141,0.9716490227408507,0.9836366703487652,0.9360629214320598,0.9034957160454243,0.9243174891272785,0.9552779282043802,0.9913992569499045,0.8405723545886781
30_01,c3,oc,11506,0.9253869117182775,0.8793062548552423,0.913822813231922,0.870683126740989,0.9491516223473677,0.9464445049991642,0.9640128221028369,0.9555414330658671,0.8410081711877779,0.9697183447824164,0.9397863994362653,0.9346832804097616,0.9539143191775186,0.9586874176698218,0.981860910125105,0.9221830163640142,0.8918953322816505,0.8962009545845842,0.9549578339310176,0.9892180942984997,0.831380609979626
30_01,c3,oc,11571,0.9241683924872969,0.9044433912696441,0.9119276472700169,0.8766819050673093,0.9440704447299554,0.948614852641528,0.966849743812078,0.9420056546077332,0.85874559294534,0.9753907107179234,0.9549015279648663,0.9286780379096633,0.9454670820796505,0.9566813234294093,0.9755569531329463,0.9111747474727758,0.8896259147791661,0.8972228895943497,0.9590797989485708,0.9836671895609332,0.8418282747824164
30_01,c3,oc,11636,0.9132616137155409,0.8901796912210395,0.899703108397866,0.8902861859505268,0.9442227540548327,0.9425463613796969,0.9699199782300185,0.9369834139473113,0.852055594617719,0.9733600718607733,0.9603836425568234,0.9355348224526234,0.9366276502588355,0.9458502809224838,0.9710948026542748,0.8874729782462505,0.8884730346834524,0.9066517359602663,0.9556893427277647,0.9820395401578725,0.8353468739096216
30_01,c3,oc,11701,0.9187321144963113,0.8781235474469503,0.8941073070581764,0.8832855559796209,0.9524244659178022,0.936229654205605,0.9636337127135882,0.9359297170968407,0.8333373602989343,0.9620704399690554,0.9415098760790078,0.9206715286840622,0.9320980832360146,0.9430001166961821,0.9694701125312418,0.8954296540761214,0.8910904211183888,0.9143952535612296,0.9594288781189472,0.9763358592694982,0.8288983857421721
30_01,c3,oc,11766,0.9277929880574683,0.8816471131829087,0.9103175378310226,0.879644460440414,0.9564545083302404,0.9406196798272373,0.9622994367192395,0.9471103955866754,0.8298759462904824,0.9536920354610631,0.9376077874136043,0.9170715834820262,0.9344892808063106,0.9377141853080857,0.9681158434159971,0.9023629460660456,0.9063545694455367,0.9201387263882331,0.9473182037587303,0.9724423120673198,0.8044520060601112
30_01,c3,oc,11831,0.938796912292381,0.9060828921781144,0.924507846810196,0.9022237514715666,0.9698567634218052,0.9475715994134523,0.9683319225149147,0.963786075909522,0.8747557034405486,0.9496584405578897,0.9551883138750542,0.9105242690436279,0.9438284038944863,0.9460718841059045,0.9653583257098406,0.9238505873849654,0.9307715742974103,0.9495678691412295,0.9532377564445245,0.9720607021478992,0.8363894334760499
30_01,c3,oc,11896,0.9388214333227831,0.8780778296195588,0.928898769909089,0.9181448648233637,0.9827634456184984,0.9532684651024503,0.9720311832825629,0.9774070558497939,0.8836318500630278,0.9439913564731006,0.9543248997769405,0.926824262646367,0.9653091049347393,0.95080506901951,0.9693280881369167,0.9378371521311374,0.9442210033828046,0.958641650132579,0.9504265751874471,0.9727224056075336,0.8428337378859871
30_01,c3,oc,11961,0.9533148762219978,0.8911722710766626,0.9417805362395812,0.922581091209787,0.9877441020524164,0.9622838540999819,0.9719948173670477,0.9815748485808647,0.890355736252407,0.9500623196065573,0.9638183622889734,0.9362855802109855,0.9759812720410433,0.9576998532420627,0.9751474659403936,0.9410964685491761,0.9565669509749246,0.971326667634594,0.9481708318499551,0.9764964478448822,0.8376048333363544
30_01,c3,oc,12026,0.9661246185630896,0.9274635249184016,0.9492482297538983,0.9365453786310813,0.9850706080783401,0.9733562862059141,0.9763193204150596,0.9773304880608336,0.9253738146652962,0.9543907828279545,0.9787649336519605,0.9452101390726492,0.9863658263265035,0.9586997714287054,0.973969021863573,0.9533381555682775,0.9722842851679906,0.977171087306904,0.9636056597418934,0.9861452768168613,0.8559472233574307
30_01,c3,oc,12091,0.9641904053132807,0.9257483819637451,0.9383789334194284,0.9372430010455517,0.981928977335203,0.9663475485191645,0.9684573640546762,0.9747122731882045,0.9174095489794329,0.9554449881255468,0.9833851446204025,0.945895340840594,0.9882994262341643,0.972166916328491,0.9781601275112174,0.9512524852487235,0.9643603096976158,0.9763040368038285,0.9569078218052236,0.9853274678971207,0.8811136356192671
30_01,c3,oc,12156,0.9675752503192575,0.9197365472873072,0.9233958658275597,0.9264609834330504,0.9692274326149103,0.9533186247882772,0.958644839632362,0.9578295907957358,0.9047545692689546,0.9690058447703938,0.9761318417998812,0.9441422417038254,0.9874479548439102,0.973655380305889,0.9811835285570415,0.9442253198605223,0.9621468608486666,0.9728963956227069,0.9596003271672539,0.9820633731806502,0.8403929922592899
30_01,c3,oc,12221,0.9718664395609566,0.9276061722513056,0.9362156492640918,0.9211634201539504,0.9551695182188149,0.9543675072289372,0.9603629162020522,0.9537608096214654,0.8917626220327267,0.973365184670505,0.9802187370641755,0.9540046229656385,0.9835781010871668,0.9798563714690657,0.9816039312653378,0.9470267691897538,0.9600471241541285,0.9744194310353149,0.9509532601657044,0.9749958028504543,0.8025552893501638
30_01,c3,oc,12286,0.9740166537726922,0.9392108456805149,0.9271024817371925,0.9051441151997432,0.9424921253886784,0.9544255219935788,0.9594949439808881,0.94641453913998,0.9122524070170899,0.9702535146159235,0.9753200736358362,0.9407085635649507,0.9917142289624764,0.9885390150301665,0.9854812665088101,0.9445024868411308,0.9523899047842361,0.976539805485029,0.9567299970661941,0.9706510902737587,0.7820468169210287
30_01,c3,oc,12351,0.9746235076658584,0.9220514003071262,0.929751260916744,0.8852124714095478,0.930214859924284,0.9498850233547873,0.9510868587065374,0.9494857044225556,0.9044332363498634,0.9751857438534625,0.9726007648476613,0.9333756709391635,0.9875379060548576,0.9934669209754629,0.9869428331900365,0.9413154903490493,0.9319107259767371,0.9773265203047212,0.9488095645972168,0.9713553538116269,0.7204642053098226
30_01,c3,oc,12416,0.9766836422956373,0.9124178198312475,0.929170013957012,0.8905264527252594,0.933677918455752,0.9482775747063712,0.9493730688023989,0.9568709883671945,0.9225732400652674,0.9753358258906117,0.9612142094575314,0.9310123464785534,0.9842945876423247,0.9903386246353696,0.9888103756684339,0.94525532717775,0.9332378611700927,0.9748131188667676,0.9576679430051489,0.9772806609409805,0.6998178230572714
30_01,c3,oc,12481,0.9765023571422325,0.8995393535698414,0.9234386622292694,0.8923013013810949,0.930481711076028,0.9542325198437316,0.9522620820303056,0.9631315207716412,0.9124783343514201,0.9682419563119734,0.9554845214384826,0.9437063126583529,0.9877235367829283,0.9893050611798785,0.9906454722722605,0.9574814222747103,0.9313628375069125,0.9654453652125412,0.9586566541169177,0.9782475768043998,0.7074265636649696
30_01,c3,oc,12546,0.9683450792203054,0.8900973936045817,0.9265955955551383,0.9107883537270095,0.9294677798157984,0.9552366669619566,0.9582611533057932,0.9596106775509909,0.91211360893135,0.970001860329336,0.9590421401046678,0.9339723931160858,0.9848536500207835,0.9887535374549337,0.9893830101007995,0.9453433987831878,0.9433883647142922,0.9699666895368896,0.9656066875427642,0.9827601799438989,0.7379380261168639
30_01,c3,oc,12611,0.9523330996871342,0.8752074742464412,0.9475840233364469,0.9217923162757763,0.9384001020206123,0.9508693934231554,0.9653979351168722,0.9592984219348281,0.9108117866558051,0.9751141396468965,0.9664231926825814,0.9457753121551687,0.974824641034513,0.9798149724698754,0.984894421449267,0.9577885895662193,0.9531441810191128,0.9634506262254521,0.9753824670702708,0.9848239391884492,0.76127286031565
30_01,c3,oc,12676,0.9497245007777622,0.8731274674439783,0.9485117919210938,0.9282987748710495,0.9540586797448151,0.9591697243782704,0.9672099214199231,0.9549792727585735,0.9173945862310283,0.9780694544213971,0.9632012276859476,0.9536907867474435,0.9765168677887139,0.9723505081855199,0.9818173152061224,0.9666267495444539,0.9618712076709324,0.9678247011680863,0.9801812317593928,0.9852652759758342,0.7653811811015279
30_01,c3,oc,12741,0.942759520086153,0.8898918380963197,0.9503785822520902,0.9224989110094516,0.9556571019715712,0.9581464685229091,0.979151888602519,0.9595191286935281,0.8987435866249516,0.9811809113182238,0.9667412629633468,0.9578411307328648,0.9744675221030374,0.9695957468459483,0.9745661384890878,0.9575427027059613,0.9721691994852927,0.9756424212154622,0.9846449251395054,0.985811221615683,0.8314263252487583
30_01,c3,oc,12806,0.9472674408459734,0.9042180086648426,0.9601604529053527,0.9275553355896149,0.9667718687118884,0.9708474335877881,0.9817074765646542,0.9557103594123068,0.9018175052800116,0.9822499536668039,0.9597660182083099,0.9535595311610412,0.9703224745002985,0.9746139411714204,0.9748993088937499,0.9540012668450282,0.9762444838316519,0.9740501835458956,0.9843157996961358,0.9680775841212783,0.8609185223462842
30_01,c3,oc,12871,0.9523866381274113,0.9168580602203419,0.9558417367218439,0.9322129235557277,0.9783605893737919,0.9720804567442626,0.9896539428909515,0.963674439252516,0.9044352120966991,0.9771704033991572,0.9665629055218852,0.9653478099542421,0.9679734545157523,0.9774524459016655,0.978263850377277,0.9627319004155958,0.9745692836087497,0.9751546167450315,0.9802154303682716,0.9660268367069977,0.8743061621505023
30_01,c3,oc,12936,0.9480725130292241,0.9060187631837315,0.9426733646808011,0.9234040808810694,0.9740943525835873,0.9738987875526623,0.9927089236864942,0.9705285203150992,0.8960580228847702,0.9712066454568994,0.9716223954711452,0.9651411392500081,0.9689607875592495,0.9754292988710059,0.9763859509721281,0.9696035619472991,0.9766732775312038,0.9752358768011827,0.9814562948661165,0.9755671985439051,0.8853191100765708
30_01,c3,oc,13001,0.9570982970773604,0.9035177814561672,0.9299796168878021,0.932022185869385,0.9717259680443835,0.9778401412932667,0.9921462503094484,0.9751984695795306,0.913697602303936,0.9755340124420897,0.9803105024994133,0.9615788470584903,0.9769385951707857,0.9799305399533489,0.9748999342671066,0.9626111604689896,0.9766804041166647,0.9819052905310829,0.9880907341837334,0.9830611795378782,0.903953696446849
30_01,c3,oc,13066,0.965327408168905,0.8976308513134608,0.930745075894264,0.944243405326895,0.9770784233691223,0.9768261933352981,0.9869363908287824,0.9720663837616114,0.9199813783383264,0.9696601467306768,0.9829728068369009,0.9672091225045429,0.9717377996902152,0.9853693328133727,0.9779417407446551,0.966489373868849,0.9736380942285813,0.9834902114662597,0.988893360531493,0.984240391129875,0.874663293437281
30_01,c3,oc,13131,0.9651526221158279,0.885910921676465,0.9232027958743148,0.9509237341644972,0.9728583995990612,0.9735970542106805,0.9808117479021479,0.9696110385795811,0.9101278091975344,0.9820591105834112,0.9877545871006298,0.9558012394795107,0.9718035297123327,0.9895909735424515,0.9883299916545245,0.9738033966447398,0.9790234559376411,0.9865626962712686,0.9897202235029183,0.9831844771560935,0.863263215059792
30_01,c3,oc,13196,0.9662729931458773,0.8874529430417907,0.9301534791878866,0.9427318015317633,0.96015551903826,0.9699808026487897,0.982274360964831,0.9671494818537927,0.9088349021559411,0.9842868531687888,0.9853613004061424,0.9493641765439347,0.9814352121308676,0.9879834431259814,0.9856274703139714,0.97873847413324,0.9801647165358055,0.9880443235340727,0.9918355755585552,0.9838781158598874,0.856253866141898
30_01,c3,oc,13261,0.9731902886991289,0.9023417979094945,0.9381286118779932,0.9332114114397847,0.9699451374108748,0.9695959909295925,0.9741075815329637,0.9476496429797288,0.9167369139067518,0.9808225961375928,0.9828100300325251,0.94856267331539,0.9854000028571617,0.9858953345474042,0.9864207090736203,0.9780989761319531,0.9768957274436244,0.9848146986275105,0.9902218346890951,0.979841088782099,0.8726386224358671
30_01,c3,oc,13326,0.9624460357303461,0.9170670086981351,0.9425586967173709,0.9237645944770279,0.9581397205041986,0.9646996060869438,0.970446881202887,0.9447326210333538,0.9089748071595122,0.9739189468637044,0.9774582529524711,0.9448540061260847,0.9768645189996151,0.9940701049395804,0.9913554902857226,0.9755104790217558,0.9735860410376942,0.9847129408366759,0.9921639776295486,0.9770754511338805,0.880251464233982
30_01,c3,oc,13391,0.9628151788016663,0.9364205064095082,0.9481428941378073,0.9203731081953488,0.9497050079826161,0.9633763039995633,0.9551585097228119,0.9455467524602124,0.9111229787258309,0.9783956155898927,0.9755739777634073,0.9319446858793903,0.9829847019231859,0.9950914975145942,0.9923832916085555,0.9726564209713123,0.9818886532106321,0.9862022631915779,0.9937930846083862,0.9690252143294801,0.8930385883818199
30_01,c3,oc,13456,0.9670752721281444,0.9515611669484672,0.9466934111087336,0.9161051730049806,0.9466781680652598,0.950044930961235,0.9453788865833738,0.9470852450592626,0.9343230828956639,0.9738819991059412,0.9725105748365598,0.9304564446385611,0.9857882076611341,0.9952157756055626,0.9902226791601915,0.9678167743020023,0.9731010357967194,0.9864080891297773,0.9884077017523188,0.9708096983097231,0.8972972543833789
30_01,c3,oc,13521,0.9724480012952949,0.9505381595407002,0.9299572716553993,0.9150805949175097,0.9325735099594795,0.9383331641375195,0.9409164213303847,0.9505079830477912,0.9371389947966565,0.9711677397049612,0.9745198951703181,0.9458753236679521,0.9904065619992418,0.9894280716498026,0.9909794877286886,0.9690154016702439,0.9716524195527905,0.9884136589088995,0.9878672571964995,0.9715991711658127,0.9080772355255138
30_01,c3,oc,13586,0.9752254570208827,0.9304295179377049,0.9175926609187125,0.9100618094835473,0.9039719125467136,0.9262645864369538,0.9411061397369066,0.9589195323748588,0.9366353325950648,0.969322971115642,0.9781285658373622,0.9410680770851311,0.9848240789540152,0.9933799488642084,0.9887066871568804,0.9694763720858985,0.9728146614450023,0.9864008698218643,0.9870478062930369,0.9744189988035442,0.9042227188991133
30_01,c3,oc,13651,0.9703529932741533,0.9322513111568699,0.9290224816856605,0.9136333921247282,0.8963282132237389,0.9260234612911121,0.9324229780828028,0.9648891537570625,0.9312208982193585,0.9732069796952073,0.9724054059532976,0.9357771528393712,0.9943120677854603,0.9940886807734504,0.9875785654796464,0.9741211674173716,0.9654626839465924,0.9842910507656132,0.9850598336972717,0.9698534461322872,0.8761522942395432
30_01,c3,oc,13716,0.9673845364218508,0.9258015910757225,0.9200770415796609,0.9118145245763386,0.9017038103650173,0.9266061177379135,0.9529067507912479,0.9642860831820445,0.9421512433122623,0.9730644053145476,0.9750301864374978,0.9433537356180093,0.9830266118212048,0.9937359359316922,0.9880524471191563,0.9699242300160584,0.9626781256340877,0.9815197999116205,0.9871886461395052,0.9736383659158628,0.8658360671701086
30_01,c3,oc,13781,0.9686312103070567,0.9251165525403217,0.9144229713879118,0.9061747994741025,0.9065580329714861,0.9368703724121024,0.9373490472130582,0.9617975157608629,0.9319720755277436,0.972288989180839,0.9614882423579951,0.9370946594331603,0.9751265737715475,0.9878533979483431,0.9860052766450227,0.9527240257725724,0.9438125001798717,0.982664996393269,0.9826234538515203,0.9773409342924021,0.8502979459612435
30_01,c3,oc,13846,0.9590161651065654,0.9202160361987738,0.9238348136495086,0.9209881501719382,0.9287091732927998,0.9363838308611323,0.9490426017326585,0.9522413774329537,0.9330391475044605,0.9792982644338739,0.9629807090222808,0.911977303563881,0.9714023515750823,0.9845818880499199,0.9837205020134542,0.9365971274984715,0.9326207375148465,0.9785701495542037,0.9868111169998791,0.9837279203454184,0.8419680350751069
30_01,c3,oc,13911,0.9566035859251226,0.9185097244520026,0.924786473329048,0.9270876834031365,0.917460131802219,0.9359170364434738,0.9466089223990121,0.9301787112760755,0.9099603583538354,0.9836432410030038,0.9515766832023583,0.894815413987492,0.9587043315796251,0.987757679310707,0.9873034152463981,0.9098329000802556,0.9143227704817652,0.971978146876712,0.978878728534348,0.9854142634930083,0.8237085863175531
30_01,c3,oc,13976,0.9489501857195722,0.906788141819001,0.9283009546094917,0.9118879850383067,0.9096124320611417,0.933075188380619,0.9461829453429562,0.9099658223081946,0.9219014564675541,0.9859400456435056,0.9470052999576378,0.8896479702165221,0.9371905219400738,0.9871862878122801,0.987159190328024,0.8911355033950347,0.899651447101161,0.9603472114100269,0.9705178841237169,0.9863101702518848,0.8132222592706265
30_01,c3,oc,14041,0.9491358670027857,0.8936853985245127,0.9185520766753185,0.917860968370151,0.8969651818975936,0.9264179999832541,0.9331923718026278,0.8909469137137362,0.9133365436631277,0.9796625539498223,0.9457943109422159,0.8897172255019524,0.9554453945552048,0.9837406616145019,0.9898622647778775,0.896046717809891,0.8951733719508908,0.9556977859253889,0.9679225706619653,0.9857719364233072,0.8263111726438853
30_01,c3,oc,14106,0.9410167757640838,0.8984849659063384,0.9281199913615009,0.9276238196715587,0.9077154425738067,0.9350447900165479,0.9534583935447843,0.8948421929446964,0.9102921763576188,0.981816262818165,0.9579563475731009,0.8942547609157501,0.9614367889826638,0.9834334268173057,0.9915390609749308,0.9131140650870032,0.9248784724295547,0.9518095731728404,0.9681607526479022,0.9801904536879493,0.7978320982722675
30_01,c3,oc,14171,0.93174298231487,0.883754972871018,0.9265513104833712,0.9277332599159218,0.8953355497179346,0.9435007814032856,0.9579355981827234,0.8948256506904066,0.8980210005663137,0.9804515997413937,0.9556485494256695,0.9305811292057209,0.9562724786737408,0.9748352470311595,0.9899527822526657,0.917703055664354,0.9309449608877896,0.9481622653297543,0.9615643633715807,0.9803105516507369,0.7685820870324149
30_01,c3,oc,14236,0.9352562261913511,0.8815270795385433,0.9287998935921251,0.9278353404146905,0.9254814394530738,0.9502452139857651,0.951065377807925,0.929563933769535,0.896550802078506,0.9791892628765191,0.9752567119880982,0.9556922948282734,0.9720651215936102,0.9737301654889622,0.9932681460895029,0.9511085738604732,0.9487113020799898,0.9555696987867415,0.9604369720737697,0.9818063548145312,0.7668316021483214
30_01,c3,oc,14301,0.9324455610856955,0.888130296131917,0.9380048503546808,0.9429138065475,0.9513832219564434,0.9561759580064231,0.9563657808513388,0.942640127456896,0.8782661040098473,0.9847349700911306,0.9776641162724654,0.9551420135244567,0.9782348902932075,0.970561542408819,0.9950625698200634,0.9636972434585579,0.9648763445047083,0.9564104017345476,0.9594259925548523,0.9849522929355592,0.7615816856186185
30_01,c3,oc,14366,0.9282882941318469,0.8994099698785147,0.9513780850955675,0.9546801336120093,0.966693238250756,0.9628160607956203,0.9668308101461411,0.9399862318110431,0.8862766792158498,0.9838680665717626,0.9822388381297605,0.9513939900349531,0.9859639188005939,0.9795416225300648,0.9936295234879544,0.974731894727999,0.9730763682088668,0.9629141164056849,0.9734172433639241,0.980440327248831,0.757332451693828
30_01,c3,oc,14431,0.919806504497444,0.8889556539157413,0.9531634484402555,0.9655255607842288,0.9661319225640527,0.9596673885535805,0.9715055353386257,0.9382827277033327,0.8820660053113057,0.9897236001827042,0.9791276888977926,0.9564921083325316,0.9879747853383024,0.9820812193057783,0.9879290229342828,0.9746145901756744,0.9715918929754596,0.9639742975107212,0.973472226202477,0.9810709136864476,0.7488532077786516
30_01,c3,oc,14496,0.919280541561192,0.889920545207264,0.9583123551244387,0.9624957096721382,0.974785503471839,0.9643796502678139,0.977043758165778,0.9582628547223745,0.8767139733365161,0.9881450857021165,0.9733821684032031,0.9605422014268072,0.9823399321577351,0.9767354535041319,0.9834780318561753,0.9753753690524487,0.9713976039638755,0.9600524454399064,0.9749190189710615,0.9787582564302086,0.7689921986496387
30_01,c3,oc,14561,0.9057799292906559,0.8955760995600011,0.9618382717065944,0.9588797922088388,0.9762275787652205,0.9642340341366918,0.9768239201385276,0.9561553982480636,0.8743108984928861,0.987611657958565,0.9647634232956406,0.9489228000588686,0.9736828421860513,0.973600292900596,0.9787021667435182,0.975024618611182,0.9656225661016491,0.9539506712533778,0.9768738926681113,0.9764501398927585,0.7484507988652753
30_01,c3,oc,14626,0.9110888804327599,0.8879897289368547,0.950217266541878,0.9584090672240622,0.9684432206013599,0.9556709403382532,0.972876986605571,0.9596718300077647,0.8763334902597147,0.984972199837651,0.976408985398165,0.9591813906442608,0.9713703499461607,0.9819338314247186,0.9765410926908267,0.9813484362450686,0.9707594469786197,0.9740193186510469,0.986036471517512,0.9707024567478096,0.732582780349812
30_01,c3,oc,14691,0.90675699492949,0.8829695637326718,0.9397427522441005,0.930000496928131,0.9617037383435537,0.9433972534453904,0.9668033396260703,0.9584175762944551,0.8656882003164023,0.9849347594583362,0.9694372088631925,0.964186635410623,0.961858745487258,0.9795939438239691,0.9734178903792569,0.9785948751733444,0.9680125630042807,0.9573790560100044,0.9800899389125318,0.9626335499360454,0.7183177332546192
30_01,c3,oc,14756,0.921015371880925,0.8807445354134508,0.9279793108296077,0.9084808187009127,0.9602938818857253,0.9503836672836383,0.9692645412723728,0.9563458533807051,0.889073066492438,0.9789062947580288,0.9615333447533434,0.9567709370846538,0.9685742974519862,0.9786190027053931,0.9703698414485313,0.9667739360463742,0.9644408943947463,0.9544849668511985,0.9775343569932331,0.9574992235224405,0.7326228940952078
30_01,c3,oc,14821,0.9442590791291523,0.8819130658140747,0.9059104977268374,0.9121773842295189,0.9628149997867221,0.9374940829172376,0.9710348519960418,0.9541795287697036,0.888027405146627,0.9770976186476558,0.9530658500856031,0.9476410391675212,0.9643735631918141,0.971904437110684,0.9576437183283265,0.9519538909578313,0.9603268073156751,0.9473071794895036,0.9765775793301035,0.948986652660381,0.719806262586056
30_01,c3,oc,14886,0.9518995127118447,0.883043719598594,0.8938436253698631,0.8889678985447057,0.9568322733757779,0.9316948230436106,0.9741247450879639,0.9421345000706971,0.889643032246265,0.9665204540401222,0.9396766990466253,0.9396412346930144,0.9572306157067325,0.9727993071097808,0.961116995481523,0.9399294856340836,0.964942124528511,0.9447360792742802,0.9762008282236994,0.9412696774716467,0.7541145302366947
30_01,c3,oc,14951,0.95063881760186,0.8959901854823861,0.8990905605778019,0.8814055519673514,0.9632391977826268,0.9456340606968485,0.9792438128944639,0.9222414697510563,0.8929521031448168,0.9537539227993405,0.908657700764704,0.9395939785420334,0.9435798671015015,0.9623010899790272,0.9403750378831962,0.8989040063139564,0.9390017735530963,0.9163767296796396,0.9446113922340709,0.9398518072601336,0.7483642317067861
30_01,c3,oc,15016,0.9580857482940913,0.8943244172914546,0.8937474646494209,0.8741830089319617,0.9700945426071444,0.9476189793196713,0.9664753049971894,0.9367590980295647,0.8969761379649599,0.9196967676534512,0.8778988313279683,0.9289104974579881,0.9237355279908805,0.9581040997751893,0.9441338258701422,0.8476156263863678,0.9016635248350645,0.9152062279113764,0.9382899620270879,0.9366212983901162,0.7760490344307513
30_01,c3,oc,15081,0.9402534423064416,0.8691957024120722,0.8903755804402634,0.8727421431518672,0.9606039508240936,0.943289792117096,0.9692103783530028,0.9492947241522214,0.8654299404562756,0.9131054873524521,0.9066547498600462,0.9096316409390476,0.921751932878547,0.9607344648619704,0.9548756926648589,0.8552707402431592,0.8812356142754476,0.9145820223538865,0.9324708564083334,0.9391340162454767,0.7727113918236025
30_01,c3,oc,15146,0.9391035262140394,0.85964125465798,0.8706658905190691,0.8485106311208009,0.9614332093822532,0.9346691967988647,0.9582482921795846,0.9537030287378877,0.8591670790654808,0.915492205024505,0.9099024977578336,0.9131432295141931,0.9384930408053519,0.964997266742144,0.9682657222828087,0.8607999438999929,0.8787335054329378,0.9239560048477776,0.926757262490886,0.9608454640684317,0.7744404579852482
30_01,c3,oc,15211,0.9529937029930596,0.8682194551035832,0.8711094142004001,0.857707296155385,0.9679834014522886,0.9509055354794104,0.9626772226456213,0.9619849831127576,0.8583202967454144,0.9261796933168653,0.9352813730509932,0.9096955258686339,0.9521878214532175,0.9592342760536067,0.9707730108524366,0.8759066312772291,0.8681550766652347,0.9493392597414461,0.9348371048963153,0.9729874828203058,0.7953530604106163
30_01,c3,oc,15276,0.9561594728108165,0.8854882251590208,0.8899300587375165,0.8894693934013926,0.9662821315832281,0.9532831591251241,0.9551315870069604,0.9699488250753938,0.8829061326875901,0.9542338211834,0.9570082409733771,0.923511125021625,0.9609042455350364,0.968242950795595,0.9730942561377632,0.8963840940036808,0.9019991132551646,0.9615338490884807,0.9475870703473465,0.9760306674720503,0.817634186457368
30_01,c3,oc,15341,0.9635794805917063,0.8853001533994834,0.899620892295956,0.9002229538656555,0.9668678822842571,0.9438665731328914,0.9550772644442156,0.9598669757841294,0.8844990595436248,0.9693053898637374,0.9714700837643415,0.9349223375460185,0.9653490222174363,0.9752552540581195,0.9721433503120658,0.9148749170281338,0.92673842208627,0.9685700824588774,0.9474210384268779,0.9794935419652727,0.796094221186504
30_01,c3,oc,15406,0.9678251050575086,0.8961352382923562,0.9084205844764202,0.9078940779003727,0.9616707442698836,0.9191531885750059,0.9422779446186805,0.9440410385755167,0.9024202856740424,0.9721098162786385,0.9690123632158906,0.9307533704287734,0.960737126150733,0.9783229294037035,0.9669980807418769,0.9033209583570563,0.9245914635784129,0.9658321602766711,0.9411702686076889,0.9767226056874593,0.819786042403934
30_01,c3,oc,15471,0.9525592442191987,0.874685027770886,0.9155280278275328,0.9062342024434633,0.9568603591764843,0.9012103493910361,0.9218981480388374,0.9500745835697169,0.8875504370185816,0.9701113583919838,0.9682997840051021,0.9090567090228238,0.962181624488412,0.9811741330508508,0.9759900815921655,0.9174994277152919,0.9419920926397566,0.958040198535955,0.9311825103794427,0.9748957078232455,0.8128253151355009
30_01,c3,oc,15536,0.9405470812563286,0.8769390113953639,0.931620505247609,0.9226354749374626,0.9528779933196242,0.898139252312754,0.9218815064813313,0.9601763275730596,0.8950707085849083,0.9751765884841131,0.9737874724597293,0.9329391214193061,0.9649522301413291,0.98451900716961,0.9838449864661213,0.9208061267653606,0.9504283498029619,0.9576420692498973,0.9280173051546674,0.9754910345363386,0.7837267715248485
30_01,c3,oc,15601,0.935365998706428,0.8516906229900562,0.915621986600254,0.9109231339468489,0.9411197554805156,0.8902374193647726,0.9223552527919553,0.9638604826041933,0.8815353150905266,0.9760244027113287,0.9745372545449191,0.9292562830681037,0.9676727446299557,0.977805667308675,0.9926493109498762,0.9249140676798545,0.936690547451945,0.9557976648286641,0.927307334960906,0.9818266462049747,0.7814416822787248
30_01,c3,oc,15666,0.9194839588405351,0.8654300273564733,0.9297926809535487,0.9191876341204326,0.9467533541471168,0.8972929564307801,0.9391503002625652,0.9620587753984656,0.8880564041069373,0.9822658892538697,0.9711112934242749,0.9244894495979056,0.9605943079390444,0.9693248510595216,0.9931026739420293,0.9149333655642627,0.9349021564250862,0.9530529762902843,0.9327804963095888,0.9798542172751199,0.7976816438790437
30_01,c3,oc,15731,0.9259797418888207,0.8866057966478023,0.9311887223819276,0.9063938806625135,0.9575244418616031,0.925313803409186,0.9550159387953923,0.9656175639617354,0.896040589936741,0.9800891342225218,0.9709790882284248,0.9427308972850341,0.9613566745176051,0.9521018577639133,0.9889207904073879,0.9413687356081114,0.9425559726888899,0.9492027654256923,0.9412956814711947,0.9821745850075738,0.782097980385962
30_01,c3,oc,15796,0.936828139227621,0.9048443097367577,0.9442073512429825,0.9162263614354285,0.9662823032667249,0.9357434018574912,0.9550115849783138,0.9496996244763379,0.9119743387515964,0.981250980449727,0.9615091026489726,0.9610177145615385,0.9557102473325981,0.9382825779165971,0.9808817692422304,0.9385566308446484,0.9296773912526951,0.9404494589782607,0.9605734150703046,0.9773280129589227,0.784959974149677
30_01,c3,oc,15861,0.9370698542735818,0.9070423634483601,0.9322072877391472,0.8963575194526523,0.9654976712737297,0.9351886409484925,0.9622113999820507,0.9456154193780277,0.8983197146095943,0.973395988970236,0.9568103663535881,0.9549016992719431,0.9486555795367108,0.9379822837772654,0.9679474896289972,0.9211901972822673,0.9230606849233213,0.9412971383182801,0.9664299313513028,0.9781865343924142,0.7648254799679358
30_01,c3,oc,15926,0.9529949011355365,0.9191364203112473,0.9268799647393284,0.8946149887734104,0.9637308770830025,0.9476026665126377,0.9639659779730002,0.9488545489534649,0.8894199521727774,0.9642869893055228,0.9545445472145228,0.946334005533886,0.9428271568944675,0.9320487320731984,0.955440230230641,0.9119056950134651,0.9332190007300538,0.9460998770726612,0.9563993069000878,0.977158847610317,0.7786066892885074
30_01,c3,oc,15991,0.9655295950357766,0.9220282957686627,0.9055758149775945,0.8925946429598385,0.9599549910995573,0.9513741117004174,0.9591555787107178,0.95053885004961,0.8938895868776344,0.9629997067596788,0.952371583353319,0.9469415350310398,0.946617394113068,0.9487823896655869,0.9610704825276913,0.9129732408297951,0.936521899300012,0.95893211338389,0.9557431606890346,0.9817018657851713,0.774274931138752
30_01,c3,oc,16056,0.9719876589598823,0.9145068924185621,0.9137781461012169,0.9047688037752326,0.9600672801830265,0.9553788977371184,0.9556772830463383,0.9545541654376756,0.8811391114883929,0.964825236712712,0.9540235681860426,0.9357981796570628,0.9374415178207736,0.963006455779006,0.9623768972620552,0.8895969809674612,0.9273458394538882,0.9584825445446873,0.9521329809474273,0.9795393080459626,0.808096367828013
30_01,c3,oc,16121,0.9709611082664732,0.9110876754240657,0.9037903471116483,0.8943468663017332,0.9624527567115174,0.9585772117785247,0.9562993368464945,0.9545174178495237,0.8730914209893302,0.9585463453411401,0.9519249208597569,0.8980492067461875,0.9358002862083946,0.9653186401085022,0.9735706060545378,0.8614676406844656,0.9100388919288264,0.9650305226984887,0.9409092614304906,0.9823159690919924,0.814616998947858
30_01,c3,oc,16186,0.9744427052413344,0.9054138365880561,0.9039137863863759,0.8862247026805554,0.9424267568124244,0.9529668435498366,0.9478506737995652,0.9397784453293587,0.8816189119327305,0.9534665858287341,0.9356692935054834,0.8742037673000698,0.9232631540542197,0.9613155046618836,0.9733721040950272,0.850572820531681,0.8986626719504405,0.9628072765352792,0.9359708524404421,0.9833577534256307,0.8466310625233477
30_01,c3,oc,16251,0.960889623363417,0.8976762070895149,0.8914531847757664,0.8613283528505739,0.9136026099176376,0.9467278137632618,0.9376139948895705,0.9265386889969927,0.8609144420288164,0.9406042616558751,0.9085236250617007,0.8584264056827423,0.9135471015415052,0.9575908681662963,0.9744634942511027,0.8137118946888703,0.843371154784619,0.9529411338689001,0.930540806117078,0.9765139938414915,0.8442853828026936
30_01,c3,oc,16316,0.9407442520267786,0.8912156344127731,0.8877914341123929,0.8481757085716475,0.898739646907693,0.93175594319336,0.9282233189935141,0.9229663986236223,0.8463513095324249,0.9058546893668505,0.8901052653974849,0.8489479855371496,0.8989098699683509,0.9425348402841666,0.9699622026487017,0.7897327754286694,0.8420920813561573,0.9383979602637625,0.9233459042359944,0.9743604400540369,0.8381776283300341
30_01,c3,oc,16381,0.9334513416281406,0.8871877836578935,0.861635779636312,0.8342271559779256,0.8642952008396246,0.9316018957092771,0.9117040212836194,0.8957364445553878,0.8416456080695519,0.9029974875335209,0.8770501470129503,0.8496149335241051,0.8918575722674519,0.9478358458130959,0.9707660046312535,0.768194083672856,0.8603246733223779,0.9378575212231183,0.9219316088501539,0.9727944048546907,0.8515060750231161
30_01,c3,oc,16446,0.9275252594978272,0.8973315765058277,0.8740387084855527,0.8388376442763812,0.8650083675740788,0.9325599687766858,0.910057336116905,0.888704094457963,0.8376025155495193,0.9185777675406074,0.8877091541035355,0.8792310992138646,0.9136747549842013,0.9606344501859427,0.9722627080613261,0.7873572482155073,0.888306006381481,0.9463468419347116,0.9237939255588384,0.9748654908843988,0.866302592829392
30_01,c3,oc,16511,0.9295368327238797,0.8897752110831745,0.8776698146108963,0.836600446567833,0.8738377291265007,0.94056281739456,0.8948823850762022,0.9058723970705311,0.8282278616114865,0.9395437905113874,0.901380216327962,0.8829447620111625,0.9245662662687403,0.9672595079548193,0.9786854675421852,0.7866433819418779,0.894383061587692,0.9526168994353781,0.9344268786573002,0.9702519346247616,0.8681873460776196
30_01,c3,oc,16576,0.9459836135598786,0.9076811585933265,0.8831822543430008,0.869840880757298,0.8977306112382475,0.9511147749551054,0.8914977543122146,0.8939291741223703,0.8591750255789615,0.957212124068858,0.918299652500265,0.8990788108297232,0.9337356131928788,0.9664952034633049,0.9825015899104617,0.8270761577769586,0.9172019197390213,0.957246030744461,0.9522241429541524,0.973305313228905,0.8748417875225304
30_01,c3,oc,16641,0.9585131322538052,0.9228049270647382,0.8816204175626885,0.8643864613340784,0.8844148432674273,0.9509625642339291,0.867162347324951,0.894662166639927,0.8719887757768461,0.9574217212544998,0.9177809480640065,0.8907514307768662,0.936848325406356,0.9660019295629735,0.982409831236802,0.8411255163181989,0.8909482980524348,0.9604629089786362,0.9609015735567837,0.9731689976239067,0.8870927225414965
30_01,c3,oc,16706,0.9497316239847823,0.9217639290520725,0.8916201948427428,0.8742450833938066,0.8660445777919733,0.9365107770038265,0.8486808681567989,0.8936502134343661,0.8883737654028451,0.9473098667812198,0.9170169940092043,0.8809393682337905,0.9382862345473183,0.9662702774574592,0.9817328749174162,0.8760764048209848,0.8849132149905458,0.951675336304985,0.9643584659270241,0.9655510565395872,0.8811712838418033
30_01,c3,oc,16771,0.9545552832113082,0.9018777033572366,0.8935498033591969,0.8797993453492535,0.8483729051029957,0.9304774869658201,0.8545181122980464,0.8872231937986245,0.895900546987948,0.9379719966333083,0.9119596892208627,0.8852336902136219,0.933318921397148,0.9641186471851257,0.9862447538547481,0.8892425165173253,0.883620886239713,0.9448920159790082,0.9561363277680498,0.9557530086239313,0.8870803070804701
30_01,c3,oc,16836,0.9562510266419827,0.8874085668756768,0.8817003254600716,0.8948362740051613,0.8719253284705718,0.9289271428957757,0.8858117843798503,0.8895561515956072,0.8849914708839133,0.9325364189814367,0.9124562450444099,0.8951401831356478,0.949443980260043,0.9726946407092494,0.9860620759592006,0.9086895537940961,0.8951536121356147,0.9420011729968749,0.9520331272508268,0.9569376483522636,0.8793723003119227
30_01,c3,oc,16901,0.9561279688702315,0.871595013442107,0.9035338288764698,0.8855167763740074,0.8673061734793005,0.9420212120782625,0.9003978047865828,0.9114455560581066,0.8825788396357016,0.9353399146085977,0.9206279375888876,0.8832762446319348,0.9536205873478412,0.9795839135732024,0.9862522982085092,0.9104264073004645,0.9036437866085101,0.9449516577200984,0.9450354513804579,0.9697139279409517,0.8787758143255071
30_01,c3,oc,16966,0.9603247415210304,0.8665792032760752,0.9018686847643441,0.8905407182660675,0.9075397218784481,0.9550880901110664,0.9112378173984456,0.9237540137936673,0.8867236274613838,0.9436087328872901,0.928785496436117,0.9022412052881682,0.9609995364750441,0.9815775207074251,0.9842177696740567,0.9152586786060024,0.9185620151749523,0.9417842419170745,0.9480209574447883,0.9692326223888961,0.8924110118701244
30_01,c3,oc,17031,0.9564933788136589,0.8791918057902411,0.9080261889540894,0.8851745081898499,0.9240654076993476,0.9557154793074508,0.9263549560583354,0.9314868573344103,0.884525654288226,0.9425991832245151,0.9300643241765317,0.8988564141746815,0.9570189619072476,0.98081676017571,0.9813745286225072,0.909340437580888,0.9376257297624627,0.9471325905179125,0.9384889668063631,0.9668631730993179,0.8697691121592551
30_01,c3,oc,17096,0.9636799867587715,0.8746642031881969,0.9052147153334827,0.8734115380309148,0.9259182089984047,0.9614598338736646,0.9196171443180624,0.9334039251545181,0.8858818627157968,0.945691478920038,0.9254592967937662,0.8784655746117473,0.9596537781387272,0.9837349644744097,0.9839971144873735,0.8859601571887501,0.9237437038403334,0.9451033335945198,0.94652091222864,0.9729857244151848,0.851649898694823
30_01,c3,oc,17161,0.9769602954901576,0.8773710107430192,0.9222528982235707,0.8658523430131384,0.9149566470596622,0.9575753655765077,0.9237247840999421,0.9493331750295659,0.8882137316613778,0.9515444064286436,0.939375137056622,0.8904780646905576,0.9601828280088512,0.9823504309904914,0.9836938381301441,0.875097240748348,0.9246677536168043,0.9489975364194454,0.9493788623824302,0.9772477138361854,0.8674039688376366
30_01,c3,oc,17226,0.9770623945867425,0.8743912654183479,0.9218179767966304,0.8734095467991276,0.9339362778608844,0.9429323974493603,0.9331439339039633,0.9464823601404599,0.8708538341811983,0.9505162473971525,0.9435988984632336,0.8950673238030541,0.9680912325169045,0.9745183023064994,0.9847642516296954,0.8915007215951792,0.9220249162499419,0.9580314881226352,0.937636592725469,0.9822230094532087,0.8724263408312937
30_01,c3,oc,17291,0.9650951670789338,0.8900784384490444,0.939180809871549,0.8912443492969028,0.9364885666842694,0.9506214365884306,0.9477512869542764,0.9421073078519581,0.8655709518196052,0.9588044320446051,0.9518894915619623,0.8924983385354928,0.9801180627051211,0.976508080200291,0.9889674586102496,0.9118011412643882,0.9229233976984312,0.9567068855729631,0.9294311620557592,0.9872338087203132,0.8569586447145786
30_01,c3,oc,17356,0.962975165805326,0.87996727015679,0.9358310479361955,0.8973396504101645,0.9380530120068334,0.9520257443829365,0.9465704965423402,0.9524736691277423,0.8493822133012228,0.9586646791772182,0.9523646047944687,0.9025943844756031,0.978314001960016,0.9825201279084125,0.989484101742359,0.9127653276516156,0.8938398885865046,0.9489485914777211,0.9249362426082132,0.9884805415604232,0.888171730782982
30_01,c3,oc,17421,0.9507770848279308,0.8980842131622159,0.9293540669010103,0.915013323554188,0.9525527278796722,0.9486690466312971,0.9511676590262548,0.9593826220420487,0.8404119320604552,0.9670377300267077,0.9615796120664499,0.9156788358665376,0.9822313234798012,0.982303079575697,0.9913407534893054,0.9292410495796439,0.8905781383777809,0.9565927694783016,0.9098916782165094,0.9912674456039002,0.9010732212257888
30_01,c3,oc,17486,0.9497689788789871,0.8929102301125151,0.9225269849345779,0.9154866999607447,0.9551572976752385,0.9523112935574919,0.9507229997152391,0.9629358913876029,0.8677266694899615,0.963556206057911,0.9477381445080123,0.9105019230831631,0.9815979574600846,0.9780532112333387,0.9868478795790439,0.9110943717358886,0.8823081594182399,0.9508528543930695,0.9258146877551359,0.9893333084134776,0.8913410003216712
30_01,c3,oc,17551,0.9323603362321857,0.9033038803794109,0.9243654937646982,0.9061404954929124,0.9448253936048115,0.9538309639841662,0.9435619076921956,0.9547447523987698,0.880554581327951,0.9679081582886728,0.9506704626276992,0.9213334227126831,0.9773071874082717,0.9828780488216987,0.9800733533971407,0.9106946207594838,0.89495916597733,0.9498597548095307,0.9401043300991614,0.9891804289538412,0.9032610603645225
30_01,c3,oc,17616,0.9416149079714133,0.8827365684881756,0.9101084970473071,0.8893402652656025,0.9503219608851459,0.957307454776425,0.9445206424239431,0.9520215759663488,0.8713100682613694,0.9677243031843313,0.9543455333311338,0.9245269706990884,0.9693894144787149,0.981936011188169,0.9797578687617456,0.9129473093690501,0.9030667266135668,0.9562456954002813,0.9551317293656891,0.9900741436073507,0.9040394398912192
30_01,c3,oc,17681,0.9441111277285366,0.8966214157402167,0.9120755534148102,0.9023208211760331,0.9617202026347921,0.9645981052848719,0.9539394342627838,0.9553737529080426,0.8832567493472171,0.9778763076238985,0.971374631133116,0.9406535617006508,0.977727198137841,0.9806421646390032,0.9743357002246015,0.9204249657387926,0.9217374974989494,0.9606366288392194,0.9774506552207284,0.9863082990953269,0.8899667479905475
30_01,c3,oc,17746,0.9473143516604099,0.8860081175953111,0.9180867654519873,0.9011281596977045,0.9645894720120698,0.9681600404244058,0.9565116963776947,0.9526590426252776,0.8783729400809245,0.9722933425023383,0.9657806565699054,0.9361208904220307,0.9758156443179682,0.9764612774036532,0.9664618548977895,0.9263942448074611,0.9274452544172184,0.9585221036971237,0.9835348179082998,0.9895561550235599,0.879661992519453
30_01,c3,oc,17811,0.9481943937603438,0.8933817804193969,0.9127216599514115,0.9087070002422142,0.9727072845114132,0.9657161731507217,0.9580769783174428,0.9438472504991322,0.8884915183735278,0.9794734838615228,0.9721342022567335,0.9385655703128738,0.968583039390687,0.9750408369444068,0.9667634057777986,0.9386921508102376,0.9350372730167865,0.9625494552693392,0.9853323078998201,0.9908760029302744,0.8786110621771435
30_01,c3,oc,17876,0.9458542056363124,0.8835752377760747,0.9069378192032489,0.9192276408970113,0.9799858960528868,0.9527084403842434,0.9634490764370859,0.9443950702402368,0.8818351604210917,0.9728293135732262,0.9714952615802167,0.9435233319398141,0.9688941956644567,0.9692450252855922,0.9661501090361864,0.947282661895603,0.9236636230490496,0.9539041103433352,0.9864893491256143,0.9847406925131248,0.8444813164691397
30_01,c3,oc,17941,0.9369063183375572,0.8931177605694774,0.8881426220391078,0.9205671400094879,0.9801380916047763,0.9382385941826674,0.9663326599088828,0.9501223660740824,0.8894776291958337,0.9731171042236177,0.962993914868842,0.9458367279406387,0.9503293714285874,0.9700980504916059,0.9677830962117826,0.9454419480148768,0.9214005897606055,0.938565183363106,0.981394199553363,0.9816559199677342,0.8376285182272375
30_01,c3,oc,18006,0.9326667919677238,0.9017695487404991,0.8920367280558216,0.9249098272567027,0.9837635097574612,0.9383181092533447,0.9725709073440417,0.9544388625603475,0.8807733839587089,0.96314775585609,0.9596651794070543,0.9557790867590895,0.9597048900701252,0.9660909326804502,0.9627000643127712,0.9629911455357316,0.9151749862985149,0.9295080681667836,0.9684941516548533,0.9697913370787311,0.8416263105856719
30_01,c3,oc,18071,0.9440138262259992,0.9161674364733682,0.9181775675291214,0.9299591061506611,0.9842395901140054,0.9242238715084236,0.9743353705815277,0.9503974985121655,0.9026128421502378,0.9725497730348243,0.9633328388385968,0.9666386659613141,0.9537581589361548,0.9650135921385621,0.9636918734982853,0.9709279915628347,0.9242126624686012,0.9304004370218455,0.9637553441502524,0.9632988278585113,0.8130367481982196
30_01,c3,oc,18136,0.9380646044592913,0.9229231783820206,0.9266402054751165,0.9277437593093473,0.9841076281276037,0.9288964997616531,0.9705837637584663,0.9556407196021929,0.8799179208959569,0.9603657244740931,0.9500178000085737,0.9620311055287848,0.9652430155787557,0.9577955579734382,0.9553409631399531,0.9677731082581739,0.9336515919268324,0.9189451336451485,0.9571202111038577,0.9581842083650584,0.777196137860874
30_01,c3,oc,18201,0.9389061279543996,0.9306046425597274,0.928124575102852,0.9192766190079996,0.9834174827136553,0.9284484074269774,0.9710604212941958,0.9583890691320108,0.8944176837429485,0.9588171427019907,0.933158382942625,0.9535238113327912,0.9622116774700531,0.9532635425214616,0.9503981861607783,0.9597727651576254,0.9290431975094802,0.9106837191059415,0.9459897800118501,0.9639396461773915,0.8071927654256871
30_01,c3,oc,18266,0.9377375107150531,0.9246548554226048,0.9387533126625569,0.9291600680266416,0.9824709675536173,0.9364188322535317,0.97681670543766,0.9611285546199133,0.8972418980383685,0.9413046102141668,0.9388080112090168,0.9546429461425642,0.9657841937483261,0.9528040957988579,0.9506920632427653,0.9590613786141793,0.9272052739401053,0.9198804127193777,0.9436146611897421,0.9656429625628914,0.7938475064492648
30_01,c3,oc,18331,0.9467795956785848,0.899187476667538,0.9184442065363869,0.9175555338622028,0.9770550646132847,0.9346705310899058,0.9707459339641661,0.9646752937068941,0.9027813424922541,0.9381058369629233,0.9399114669129347,0.9510505300696074,0.9588921419099419,0.9493612592956145,0.9440671646734693,0.9521973045658896,0.9330405258895,0.915504324446911,0.936892292954205,0.9706695946831315,0.8059710016349079
30_01,c3,oc,18396,0.9471745823977977,0.8843743935653154,0.8923957298757156,0.9056363869256671,0.9728187553268419,0.9427787997004515,0.9669051475527674,0.9759519714602662,0.8951345236486955,0.9377654922088537,0.9292206790601388,0.9426555509312069,0.9654063499148091,0.9589933259806188,0.9405496069267821,0.9551872577857641,0.9351266107529246,0.9231433552687774,0.9453680411544156,0.9662804058566496,0.8216258972148598
30_01,c3,oc,18461,0.962442699304091,0.8796602397711801,0.877170660174598,0.8869198505131016,0.9688947245311205,0.9432415499842873,0.9705995909332614,0.9724733946588956,0.8995176415726046,0.9338023263082571,0.9394420854022663,0.9432402981984156,0.9685102888850753,0.9600601973952748,0.9487875861002445,0.952158729204447,0.9226753354533518,0.938202891006636,0.9437155504584205,0.9744842892682155,0.7922631763397342
30_01,c3,oc,18526,0.9663584352593064,0.8839228739758015,0.8772069891371618,0.8876450769347415,0.970026273487146,0.9512703289854147,0.9697244896397349,0.963410695841212,0.8960319381574898,0.9246838533048557,0.9438574184642744,0.944731253597214,0.9692767886281053,0.970924990959185,0.9653378024056893,0.9553240641421574,0.9260723824258023,0.9597742844098085,0.9548865749740151,0.9767842700967442,0.7517931390171742
30_01,c3,oc,18591,0.9706895908408724,0.8865011873627795,0.8698211925998377,0.8770411394014397,0.9619444990340128,0.9563291428722089,0.9603070144335962,0.9582225936214407,0.8980015005791074,0.9312372679511753,0.9414555929832443,0.927196796174655,0.9643502107371769,0.9608780870511865,0.9697241912346412,0.9462801364768272,0.9272327861072842,0.9594722670072141,0.9476325403067177,0.9705718067582186,0.7719234477473284
30_01,c3,oc,18656,0.9694674897430847,0.899800472990349,0.8816293294354322,0.8754299021835907,0.9641938499091729,0.969860194245716,0.9635632913330359,0.9452770109699028,0.8974558564417766,0.9259168583531302,0.9354333634426522,0.9352970536800053,0.9726913453465859,0.9676874123773626,0.9791634182129091,0.9342461312960993,0.918188742519105,0.9661696048469173,0.9574358417461344,0.978020140536626,0.7259100846199917
30_01,c3,oc,18721,0.9815017753694757,0.908510003521057,0.8955209432503461,0.8879870865968802,0.9702838110994015,0.9754261952628366,0.963962364954941,0.9428705027919518,0.9023062076564422,0.9363429870667762,0.9544793638796875,0.9267579882066139,0.9738288163554634,0.9655468369486768,0.9867811238999417,0.9164470011557342,0.9112622680016871,0.9605954649391929,0.947514483700533,0.9880545806253817,0.7559238102008118
