subject,combo,condition,window_number,F1,F3,C3,P3,O1,F7,T3,T5,Fz,Cz,Pz,Oz,T6,T4,F8,O2,P4,C4,F4,F2,OPTO
30_01,c1,oc,1,0.9541034680630798,0.9357964372393629,0.9241771185846506,0.8724128042770144,0.9364267816922942,0.9604693080105837,0.9453837379694482,0.9259023469484584,0.9024168390406413,0.9738902395670268,0.9428646506944096,0.9178930328917484,0.9491631648671147,0.9889329262694322,0.9863756252606423,0.891068187329965,0.9367764601562876,0.9692164169248115,0.9767183222389229,0.992905483475519,0.8030288441726878
30_01,c1,oc,66,0.9493577234339159,0.9314256418327029,0.9158918898616332,0.8756978458819499,0.9295573641474426,0.960551519884991,0.9397775910059016,0.9163845642917768,0.9084557881263267,0.9656888649926799,0.9297197181020382,0.9122112564717644,0.9427093946502392,0.9826560157619643,0.9855587150010081,0.8790529703950276,0.9246142753101021,0.9625848966984765,0.9741876476764123,0.9927982500185527,0.8065176604609481
30_01,c1,oc,131,0.9491315241289449,0.9258889652680949,0.9170851019069711,0.875858919390965,0.9247924015801119,0.9624726487006537,0.9490002787863401,0.9114429539152507,0.9041462462182863,0.9661649795107006,0.9292131759807148,0.9137237005667032,0.9286278864686247,0.9808203685118417,0.984910739142783,0.8810641982609376,0.9241125393077008,0.9579671112290873,0.9743704055425498,0.9894397377979979,0.802109576548503
30_01,c1,oc,196,0.9488926616513981,0.916317015137691,0.9139546871422217,0.8690193054375548,0.9294684943975086,0.9608269848411739,0.9508587503628224,0.8994783453016567,0.8887469934220383,0.966697067627542,0.9296086255911028,0.9178967641979818,0.9313668055125304,0.9762601626630744,0.9833089151596921,0.890829264368994,0.9206293711503332,0.9561017386367913,0.9681069579451733,0.9879343259264537,0.8233378102994031
30_01,c1,oc,261,0.9509583797342032,0.91637026876911,0.9279110744692559,0.8762121790009765,0.9353910938975547,0.9560382638671681,0.9525407486022913,0.9068607211099186,0.8775799577693825,0.9659263152960421,0.9300374554724271,0.919839713420175,0.9279515426758868,0.9744783831538769,0.9819389936536559,0.8959418522349235,0.9189818689171111,0.9588596964633679,0.9687688937399082,0.9829387741163191,0.8193733546702506
30_01,c1,oc,326,0.9562750396536085,0.9157707084343858,0.9211279291386,0.8739573595041457,0.9393013795251708,0.9592153369910786,0.9527597192386495,0.9191357152998119,0.8650989608645084,0.9642909904251281,0.9388849455733089,0.9219006006699073,0.9328299560506167,0.9764463505564362,0.9822056848898133,0.8986701860592436,0.9211416820645867,0.9630467622816591,0.969643349203966,0.9837645368134846,0.813246783215743
30_01,c1,oc,391,0.9635169530358646,0.9161055561835454,0.9141039251319671,0.884067383470837,0.940111638912878,0.9603260884759787,0.9586827654806765,0.9267954217100335,0.867138566496293,0.9651383804784456,0.9492156787965275,0.9258689826999448,0.9413987433550157,0.9766238823385928,0.9797878821841275,0.9130934477337876,0.9258250406603075,0.9617687693706504,0.9643708349980754,0.985998397585332,0.8141309187901293
30_01,c1,oc,456,0.9636182349496947,0.9163794287889016,0.9110160252351582,0.8857260679073328,0.9390037835215517,0.9600155871724179,0.9591856081835741,0.9281958620269359,0.8739155808921237,0.9682896043579219,0.9564060618271946,0.9262398426083747,0.9547100044642279,0.974990006157362,0.9795456947971142,0.9260410649443336,0.9324945148816415,0.9638140468067036,0.9693697374722169,0.9901202203431453,0.789945153389726
30_01,c1,oc,521,0.9622114164913965,0.9151457613940598,0.9055620268216039,0.8863306449785381,0.9325924935594225,0.9602751326130651,0.9620842647895379,0.9237906940552306,0.8701291178305496,0.9677731338913803,0.9597559197453598,0.9283996182536629,0.9593961573720283,0.9750776553319048,0.981845097095759,0.9292960809085674,0.928044460822238,0.962781143516197,0.9633358908054853,0.9910684378582307,0.7969628629509502
30_01,c1,oc,586,0.964088061296826,0.924963789117142,0.9077290391304034,0.8776372347582481,0.9199084317998225,0.9733602826694235,0.9653005597731542,0.9184176329077253,0.8782398517020373,0.9669271428021243,0.9590049662362073,0.9264493126938267,0.961576560164884,0.9737629122484186,0.9813028755357017,0.9285706244494097,0.9224445422361245,0.9638235225855698,0.9672637103978498,0.9922021264329662,0.7980944964741873
30_01,c1,oc,651,0.9589669770842438,0.9137766224099473,0.9080691300439913,0.8774940515408413,0.9243643438537381,0.9708383416887163,0.9659847606257188,0.9225187357312545,0.8756270562033245,0.95880631432159,0.9583219055782035,0.9280907178003686,0.9610516308299648,0.9727103427296799,0.9769860412019532,0.9313763649123267,0.9174766065045435,0.9603345052420558,0.9645803452186101,0.991193460283574,0.8014032259224719
30_01,c1,oc,716,0.9627160450852834,0.9111365650659838,0.9179253774759919,0.8739318249379401,0.9308600207060568,0.9747769826083519,0.9665112308303692,0.9250221756854028,0.8763677880757402,0.9619055458185468,0.9611240871727317,0.9266364319054363,0.9591347574741745,0.9735418430537808,0.973152941475733,0.9264599425383881,0.9170902873114524,0.9638220922499132,0.966676689519975,0.9903904853906526,0.8082419494679477
30_01,c1,oc,781,0.965694737288871,0.913054114750649,0.916209052350774,0.8812555316717438,0.9282975926826437,0.9762568893427535,0.9628234177395503,0.9286413079799368,0.884008601299679,0.9624695057822867,0.9656976587261674,0.9220704906028107,0.9641711796611563,0.9744949752923325,0.9724236957622122,0.9186971846678944,0.9274916670371756,0.9646874547607555,0.9636752091777385,0.9915710536512253,0.8080116844017883
30_01,c1,oc,846,0.9598105724342115,0.9081543688798837,0.9153085076833681,0.8840653819357677,0.9223820014606564,0.976290065745135,0.9581874945997458,0.9325702476379328,0.8823663446016253,0.960336655266345,0.9660784256926855,0.9255892879975481,0.9659853408282162,0.9810327605038492,0.9790894829250496,0.9144355371703727,0.9276667549308674,0.9653827477315854,0.9696646953232333,0.9927402438959759,0.8080158659048922
30_01,c1,oc,911,0.9660203220030157,0.909608745345166,0.900847149974806,0.8696179114680023,0.9166574545562913,0.9787802584449957,0.9542365439307299,0.9295462172761451,0.8936368638719501,0.9622553544539054,0.96476081446707,0.9254340640275431,0.9713664860472759,0.9870996217866826,0.9827255079558396,0.9123975287753681,0.9279482284369094,0.9697314461513703,0.9669167385100437,0.9942046668630522,0.8057221922027618
30_01,c1,oc,976,0.9585297568852688,0.8999391077089097,0.9012439469506943,0.8675552892493307,0.9079365654391969,0.9763931224812464,0.9521037523570981,0.915221348809213,0.8956412992808102,0.9681489151558326,0.9621721283163971,0.9289654765240734,0.9705360885642315,0.9883140969523689,0.9836865399087509,0.9110896556123449,0.9259160552900003,0.9690674470086955,0.962426941201103,0.9919108319805351,0.8196645675772585
30_01,c1,oc,1041,0.9537119679543794,0.9013806774761498,0.9057520262311208,0.8646068088410579,0.9058517182351451,0.9749923066197413,0.9472470448487009,0.920028239104037,0.8895194615851566,0.9651140578226277,0.9550759570156205,0.9264235693136712,0.9675439556719051,0.9843441839730637,0.9860769006939105,0.8993190723579763,0.9172457623191763,0.9651622921706051,0.9645240265461205,0.9919988616986656,0.8219394564950326
30_01,c1,oc,1106,0.9497661859291444,0.8980223057032451,0.905756557337373,0.8627332457015436,0.9063279387264919,0.9722728741374617,0.9457490147391745,0.915370920067893,0.8845468161532487,0.961870625226871,0.9431301770743844,0.9189603000145601,0.965382397021068,0.9842634362135194,0.9836288847607476,0.8869596007121076,0.9101338930073594,0.958062740698264,0.9575001931786418,0.9901691925780675,0.8277525659011882
30_01,c1,oc,1171,0.9450433766603127,0.88808831748354,0.899153872746741,0.8601863642330329,0.9114618055865695,0.9643543327090682,0.9400712579671382,0.919796153729072,0.8820335317611556,0.9538928216017678,0.9314793088145736,0.9090922205774818,0.9615872189823694,0.980327522679164,0.9788866451435795,0.8757458936580915,0.9041574743617301,0.9510201483991548,0.9588809132644271,0.9909369228223721,0.8226664752859048
30_01,c1,oc,1236,0.9395480440940062,0.8846430959967087,0.9008168232058493,0.8663873283431559,0.9290484606260384,0.9560956788465063,0.9369156933605555,0.9279938994939155,0.8765220141311374,0.9503030548917032,0.927983552828243,0.9174808019025674,0.9660020663744805,0.9782420021956141,0.980311452780857,0.8855282798187909,0.9082963333019834,0.9467073164653429,0.9523093744072878,0.9892537426078589,0.8147727309635083
30_01,c1,oc,1301,0.9402817422790557,0.8834949622560768,0.8957177413756445,0.8691598924467785,0.9380999036382811,0.9498405044227575,0.9350039714148202,0.9378473216457228,0.8753106508298024,0.9556471331743446,0.941059027115417,0.9154776125067287,0.9676146676828766,0.9810207496091983,0.9820943949608665,0.8998014224435156,0.9195574574798213,0.9504317645086086,0.9542008002030994,0.9892166515512788,0.806016340520228
30_01,c1,oc,1366,0.9396292541222971,0.8867660668627677,0.8892164636345073,0.8757340268834092,0.9492492486271522,0.9523340456872088,0.9370449991967925,0.9408830226392223,0.8747733383762317,0.9546598544644153,0.9421826400243438,0.9147960632792631,0.9702692761373273,0.9776591267683363,0.9809823026155883,0.9172771388020008,0.9195658137970547,0.9484299541542213,0.9532685861327671,0.9889788959544692,0.8056602481675025
30_01,c1,oc,1431,0.9485102406563233,0.8832969688155325,0.8881161115492254,0.8829364445750859,0.9569929156521557,0.954498201356929,0.949325868171758,0.9476841116054847,0.8670546943294712,0.9576102536288548,0.9431358334928863,0.9144908376033598,0.9696605961558382,0.9775141190178298,0.9810487056301552,0.9223129018129286,0.917029791057554,0.9486581618705421,0.9563641917119496,0.9897404106669633,0.8024407767720935
30_01,c1,oc,1496,0.958159665255883,0.8937231254226032,0.8931033822193235,0.8865760274209754,0.9582790123694267,0.9567304207846703,0.9517210353270897,0.9452620170665025,0.8711071570296164,0.9630765367597539,0.9502748377140957,0.9156142508156375,0.9696314032051091,0.976736399362595,0.9779389880318504,0.9318301008685841,0.9288043077098397,0.9560993272635662,0.9568057718601374,0.9878378376542002,0.780938212540075
30_01,c1,oc,1561,0.9562607652796269,0.8897803375953496,0.900280963385339,0.8967856230240621,0.9622467694775042,0.9548663839317648,0.9590384086721792,0.9467550575475996,0.8711624907298416,0.9612467714548438,0.9550954466909538,0.9132119623554651,0.972886259906915,0.9721096951566337,0.9740448015738215,0.9353562347030117,0.9328937936548194,0.9556966092021562,0.9452218546807634,0.9862764262675933,0.7836612750652988
30_01,c1,oc,1626,0.9587330249491306,0.9014186663015814,0.9058900062487923,0.9038850287050006,0.96994840028918,0.9498751266582568,0.9634864739900649,0.9492616881448438,0.8746962898612199,0.9598977353668017,0.9595203886637906,0.9211585225771882,0.9752825601099863,0.9691780228538331,0.9722941993165541,0.9413292403900931,0.9351085982596881,0.9612524547259949,0.9452571529953429,0.9867818317797498,0.7458742777429377
30_01,c1,oc,1691,0.962722116507453,0.9053589814824987,0.9043591717994044,0.9014764812762552,0.970485509443065,0.9520471560266439,0.959655634201973,0.9450596467599167,0.8852253475834497,0.9586222374761839,0.9591365883311858,0.9229531707287636,0.9780030572923949,0.9766915678449147,0.9715062615470763,0.9484154609205248,0.9416772659770346,0.9658604098729816,0.9425369400601937,0.987288724959801,0.7228457065141808
30_01,c1,oc,1756,0.9684155698796172,0.912822352621136,0.9128739514918878,0.9049128840304635,0.971262242635928,0.9536866849990263,0.9649232167464682,0.947107517071908,0.8882136172464987,0.9631328479469664,0.9651129714818347,0.9219278247430166,0.9786358543611302,0.9814374652655861,0.9772460519880104,0.9469362505218983,0.946486243024944,0.9714423306401533,0.9482283005319331,0.9862191045246511,0.7041930771730766
30_01,c1,oc,1821,0.9667972672490276,0.9176651683420536,0.9213548441501564,0.9084084657646931,0.9709369228747593,0.9574259346689548,0.9685788870516681,0.9486262242614139,0.8947336932171294,0.9650949511663226,0.9675783107639918,0.9268089224007706,0.9766469803599938,0.9853958676811093,0.9827068325078252,0.9509811188244642,0.9508807474518799,0.9775084168572077,0.9477734547506329,0.9889243452485507,0.7042892654900352
30_01,c1,oc,1886,0.96415887417095,0.9095503392264677,0.9218337361686125,0.9187614600834952,0.9691308520744696,0.9557147070083435,0.9714166666396272,0.9541068025351996,0.8934763878099097,0.9710456025355525,0.9751147870767167,0.9235419299153479,0.9794256083212062,0.9852957734480483,0.9849796563035518,0.9541529191243433,0.9526827404795792,0.9793683946699014,0.9494352448028172,0.9902174890782717,0.6999331215470651
30_01,c1,oc,1951,0.9633275167859819,0.918849187385777,0.9346691283589758,0.9243425921649298,0.9680204804260402,0.9588765669286331,0.9782589850152684,0.9537212861297976,0.8994164961972747,0.9765100642045518,0.9779505661451714,0.9359890217742378,0.9835253878654484,0.9886392390998574,0.9866943546246593,0.9569231746454536,0.9539110746009236,0.9797556657661647,0.9511472454630544,0.9900355244410713,0.7123441740324801
30_01,c1,oc,2016,0.9620225476924261,0.9123162965292867,0.9349868742883999,0.9329184816174915,0.9653696867733609,0.9519670105629844,0.9806447944858564,0.9557781540128809,0.8925020773289859,0.9804254617278193,0.9762840556806328,0.9417347550078102,0.9819750999359741,0.9878594758714314,0.9859518782068867,0.9619022115090012,0.9580994390051303,0.9754292983152767,0.9473137868755599,0.9890628141091612,0.7066886139867674
30_01,c1,oc,2081,0.9543790598490427,0.9172717661664112,0.9338686272452846,0.9286364909311989,0.9657147705578412,0.942384519104435,0.9749575952894256,0.9534005000829765,0.8940673183836627,0.9776031108776781,0.9755896523179941,0.9444588498256624,0.9798127314138657,0.985839869620434,0.9851936509458991,0.960757924638956,0.9589508019925819,0.9770090083668059,0.9491726186634982,0.9894924245804191,0.7261002956701285
30_01,c1,oc,2146,0.9492450227663592,0.9187485557393651,0.9327541758695257,0.9292209239212259,0.9668016768114971,0.9391089427454427,0.9739837871546789,0.9559061622963223,0.900523818433553,0.9793964064797499,0.9702931747344171,0.9452338677313236,0.9771035213763359,0.9827627260145081,0.9826270867117869,0.9557524959234114,0.9527680891326957,0.9721542827891335,0.947090169952335,0.9887373991495663,0.7320025868148458
30_01,c1,oc,2211,0.9480978777708172,0.9221417103169107,0.9321370708212935,0.9228037555603427,0.9671765982564722,0.9445342434019445,0.9696460098279082,0.9616406093444401,0.9038769147132921,0.9765927120814226,0.9665840173958701,0.9533682883240377,0.9693762443610946,0.9843396367522336,0.9846614051653746,0.9521283599106775,0.9486529689443495,0.971878100658399,0.959141904822983,0.9902743260421577,0.7314485237919571
30_01,c1,oc,2276,0.9543327119137538,0.9123739389786044,0.9332193516543243,0.9212878451917372,0.9687308270362551,0.9466848302793919,0.9706847956185414,0.9635443767067741,0.9042360878047504,0.976298016090658,0.9639412653179746,0.953062955066071,0.9640650962073968,0.9857010765262707,0.9870939325194549,0.9466106648604785,0.9444696496533561,0.9699287023103934,0.9615512625837734,0.9918286570072419,0.7419480104891358
30_01,c1,oc,2341,0.9517364115068067,0.9043821729041155,0.9340957043899111,0.920335244056482,0.9697182808137249,0.9480180786329724,0.9735989520489987,0.9654569749798365,0.8993734123688425,0.9786147893460693,0.9628080343698379,0.9521633797665252,0.9647992215704635,0.9851699005823586,0.9867509407830961,0.9459842829809741,0.9382340479674762,0.970619615439419,0.9655150339913472,0.9889463676105158,0.7638573790968367
30_01,c1,oc,2406,0.9504327978560004,0.901146681925169,0.9296841471642914,0.9201669218161965,0.9713261710764818,0.9489691513232048,0.9707944438394793,0.9637674531189252,0.898848564453385,0.9770188941570773,0.9641105900653648,0.9607794793420944,0.9697808034541916,0.9849435421344356,0.9868259349922476,0.952584691836454,0.940726029621586,0.9705478593819616,0.9672833047878788,0.9897536583909067,0.7679604090894155
30_01,c1,oc,2471,0.9566604071751259,0.9050265061480057,0.9317427567072558,0.9241229997840276,0.9711772346230602,0.9544372043930032,0.9709257917131093,0.9601723297626747,0.904262118667635,0.9790132210377039,0.9695090305019468,0.964008432603896,0.9745726444403869,0.9833122398632099,0.9866111132599525,0.9602512073435582,0.9474648294066244,0.9699440548592401,0.9717293241839267,0.987803431672587,0.7609281319527778
30_01,c1,oc,2536,0.9602175022715788,0.9148418667775071,0.9299333228146109,0.9220854008529296,0.9692544954127753,0.956144923460606,0.9681672316377262,0.952312356999821,0.9096762708593737,0.9760014451418133,0.9662571072816305,0.9632948698311723,0.9723569151671133,0.9830711891674629,0.9881266996824142,0.9573063702684329,0.9435670924558472,0.9701302031382515,0.9731236373243938,0.9889679030859506,0.7622722302270823
30_01,c1,oc,2601,0.9627755075810795,0.9081100428394463,0.9213870294127775,0.9201557397142175,0.9660663321158961,0.9553520647195718,0.9606481523920991,0.9469780667321197,0.908220465316392,0.9739724114126813,0.9661491589766851,0.9530383644838892,0.9689706003178916,0.9852639040516823,0.9868253927896763,0.9492921539729126,0.9421288247833918,0.9714099794715869,0.9729761177785611,0.988237238364956,0.7553185707227068
30_01,c1,oc,2666,0.9609169983466522,0.9153366971395187,0.9248763823805007,0.9164412476346815,0.96551566190576,0.9610369140388885,0.961955588516417,0.9497120978924445,0.9183048657764895,0.9771780250288419,0.9697817130009397,0.9609424407205488,0.9737246556323376,0.9878263470287921,0.9851117872729146,0.9449345628471556,0.9337663361329833,0.9734130405838718,0.9744365885478057,0.9886666777258378,0.7644065570920509
30_01,c1,oc,2731,0.9623677595636916,0.9186230517516055,0.9308235555798647,0.925084367105609,0.965215445227113,0.9665556894842305,0.969723866443926,0.9485201447812786,0.9167677137245471,0.9758431677766842,0.9673721114039943,0.9650697421536936,0.9755631254249217,0.9878116595376517,0.9871736618884162,0.947233892769616,0.9314434420343287,0.9699988498584865,0.9736463207575394,0.988763402879613,0.7549594833499581
30_01,c1,oc,2796,0.9640757560016918,0.913624782823276,0.9330916871094823,0.9265285740216391,0.9682092330326566,0.971396455420448,0.9745851818615078,0.935712570663693,0.9138636658921683,0.9723505796816518,0.9696144578100164,0.96390510619602,0.9801172379724652,0.98868340197809,0.9891602293369304,0.9531829066453654,0.9360329512798846,0.9732032428386516,0.9772155061980331,0.98572875490908,0.7568423116360233
30_01,c1,oc,2861,0.9626167233371943,0.9118754743369255,0.9286071452041809,0.9257571506406735,0.970259425294057,0.9671244065107719,0.9726517071064639,0.9379260106823271,0.9100653641517005,0.975429282824831,0.9726274178949335,0.9610755956551552,0.9855947666363705,0.98986506532645,0.9878036292533988,0.9611045806479643,0.9339701647131541,0.9731071317566288,0.9709557748972626,0.9855541221983993,0.753799399101542
30_01,c1,oc,2926,0.9565043472732924,0.9155085309080747,0.9226864806600342,0.9163639999767047,0.9659133402736397,0.963878128849585,0.9735189177599973,0.9331263494593387,0.902944508260653,0.9786127166377934,0.9756296636539309,0.9620427763644211,0.9878809811072408,0.991282035223641,0.988700572087977,0.9654943077497921,0.9436751081021993,0.9742543320749865,0.971687695065558,0.9835319898805662,0.7521076058602989
30_01,c1,oc,2991,0.9603725069360307,0.9181007049068508,0.92166836588128,0.9145516751355703,0.9616215671224424,0.9630488933192664,0.9730548729071713,0.9307325158675542,0.8965657144735788,0.9777318442442103,0.9741822467907993,0.9611684359685164,0.9847360761374575,0.9915153737753579,0.985298444868342,0.9584928215915968,0.9461887088744191,0.9683236924180513,0.9696451293823523,0.9840349273983401,0.7315685669806493
30_01,c1,oc,3056,0.9603460785865907,0.9128074132550766,0.9214669644205862,0.9129859131788702,0.9608388404324799,0.9559750744359583,0.9666337316180624,0.9313857534484472,0.8951479017158754,0.9750210010681647,0.9742847389089355,0.9547901899070277,0.983923072958271,0.9897214762569192,0.9888813502918944,0.9554914456333792,0.9415058457665487,0.966290968325818,0.9679163366970608,0.9851721803982055,0.7371734655899546
30_01,c1,oc,3121,0.9547896672228156,0.9034244367708101,0.9112876723827419,0.9076943364535054,0.9633336992898371,0.9499348220932864,0.9653126011056455,0.9288089260063461,0.8833488708701491,0.9727872685750073,0.9751088125306323,0.9573405847035501,0.9838833995075328,0.9875731149412456,0.9899955992352705,0.955381766543455,0.9299657177581103,0.962803302429567,0.964796775800163,0.9860989917980587,0.7463482788628443
30_01,c1,oc,3186,0.9585565448447909,0.8995656236172576,0.9142698224257088,0.9061693977843386,0.9634692404542079,0.9514649634472236,0.9657866651851736,0.9308320433663634,0.8864318715466224,0.9726119144681358,0.9758493882223678,0.9636246731710276,0.9864956208759106,0.9900052991510232,0.9914994282586059,0.9575138524934359,0.9347443100329559,0.9667120467150672,0.9678305015292017,0.9855701959431037,0.747407074679858
30_01,c1,oc,3251,0.9597044660001691,0.901006721107772,0.9239466747634227,0.912858709258242,0.9625461501562257,0.9544633124548059,0.9622512186783971,0.9348147318051804,0.892830250346428,0.9698408261247866,0.9731087267861901,0.9670708905255863,0.987429034094943,0.9872687762342738,0.9919649922376985,0.9595019285248618,0.9359459077889649,0.9618109910668884,0.966376011372165,0.9833691607507338,0.7439353972628888
30_01,c1,oc,3316,0.9534172490849501,0.8981293008463318,0.9186890772315132,0.911581667761131,0.9576035049289833,0.9438231355274409,0.9546049410880346,0.9251708038818558,0.8900212971910568,0.96579385152314,0.9728027485462738,0.9594565821452082,0.9871183092305436,0.9848854682732047,0.9934937771315436,0.9650432172375539,0.9424139364019993,0.9552634824777023,0.9649138302592228,0.9834381681830007,0.7357398987190322
30_01,c1,oc,3381,0.9517100668133665,0.8897113929994159,0.9168997144914893,0.9118484691184315,0.957442033302501,0.9379932684339691,0.948490892462543,0.9187142314480253,0.8914077027060524,0.9660010662255683,0.971356669768996,0.9600092924101493,0.9862507171901177,0.9820090582432418,0.9931262698110106,0.9659015466395857,0.9441536280366822,0.959006384266735,0.96648805369437,0.983348358910499,0.7283255895145222
30_01,c1,oc,3446,0.950430131543346,0.8846659205642886,0.9152893509379307,0.9103760874729855,0.9524993406413146,0.9340207765233969,0.9485096824276054,0.9275773377550325,0.8837919899190412,0.9656628973235483,0.9717178699721507,0.960120170824326,0.9877736494291894,0.9807669099944183,0.9915556297850778,0.9605677557832201,0.9465827482694419,0.962650192277395,0.9635797512676336,0.9867684936357005,0.7386752705198549
30_01,c1,oc,3511,0.9515722999704866,0.8887075445986474,0.9220306802831825,0.9121553036989842,0.9444782810589296,0.9318938851811577,0.9494033892671468,0.9219518509729179,0.8755518974127977,0.9622464921816977,0.9694259167390047,0.9571819822619179,0.9848742307516776,0.9822877167160614,0.9880045613495263,0.9542657874716988,0.9472709949556257,0.9602906413320108,0.9701962931394864,0.9846172290155242,0.7401847244672657
30_01,c1,oc,3576,0.9572617767362922,0.8938580615414132,0.9270450790827841,0.9238581202727502,0.9446731816210668,0.9360071069428092,0.9533049743718298,0.9304817014533378,0.8866794581014739,0.961680999567477,0.9698220027969663,0.9573850375668275,0.9872011830835162,0.9814393202415753,0.9860382802162556,0.9535264868631744,0.9413632536406498,0.9607043385339155,0.968972337584652,0.9843688201123636,0.7514592161685211
30_01,c1,oc,3641,0.9585949243313829,0.894521636222399,0.9290239218009168,0.9339983163154719,0.9448698697218058,0.9416173797301002,0.9521025523745754,0.9383170548508583,0.8969222718628854,0.964162086021811,0.9765684188463245,0.9603788201174523,0.9909113971993349,0.9835096577115002,0.9848234945758771,0.9620583862717017,0.9495155123442727,0.9688455291793518,0.9711041568855686,0.9875014506581415,0.7578004719590958
30_01,c1,oc,3706,0.9613143460158213,0.8891102107067715,0.9304894696234874,0.9412293221841717,0.945869669269164,0.9431243233789275,0.9576865034440838,0.9406471969441282,0.8985384113852074,0.9711672050867964,0.9809208119828933,0.9619643971318012,0.9904185100690345,0.984459557081623,0.984231220807372,0.9628269660478666,0.956134942896023,0.9725070611662733,0.9714309271607268,0.9878223833395587,0.754417634113869
30_01,c1,oc,3771,0.9634720276817085,0.8964543755935436,0.9344235463275818,0.9407283833631671,0.9425794604766718,0.9431529136823193,0.9588748887399119,0.9469476394060028,0.9074685377399484,0.9728494067409668,0.9802276238541145,0.9603007353307427,0.9883048005628131,0.9859635727592047,0.9818857018733923,0.9572529515862804,0.959735664636015,0.9727457950029764,0.9710834066478472,0.989711619580242,0.7516754368224707
30_01,c1,oc,3836,0.9576751626341686,0.8939817437918595,0.9332198154838718,0.9387212886782687,0.9415131621475882,0.9391382305404793,0.9567638306588799,0.9392503856056672,0.9050425958610245,0.9721613622070372,0.9745143803039822,0.9503172208448372,0.9846249969447834,0.9848140077604759,0.9820709445467565,0.9559017748984525,0.9565865135264037,0.9700679318846478,0.9681151664033653,0.989427774031949,0.7539964905086011
30_01,c1,oc,3901,0.9552515455464518,0.8927035464178125,0.9235469244017326,0.9267164271231213,0.9441569301617099,0.9312353337390877,0.958052308948203,0.9356390805484974,0.8976781284576572,0.9734426256089069,0.9724713036662416,0.9494834016964551,0.9796813075191616,0.9863001961308911,0.9840441064029911,0.9482962550770399,0.9545664219221061,0.971959547425663,0.962170243675222,0.9908660357036718,0.7544635089056538
30_01,c1,oc,3966,0.9571926535769141,0.8904691669894522,0.9263314797134347,0.9253623178917535,0.9409966957453114,0.9334205513978195,0.9594280976658134,0.9377266900761455,0.8978448073240212,0.9747342835654825,0.9719294496334215,0.9518709376057223,0.9779785675147941,0.987769597733383,0.9851284398030993,0.9395774629472954,0.9511316251476046,0.9746918247147596,0.9601433385734902,0.9880382425489126,0.7487199683776052
30_01,c1,oc,4031,0.9567076326117987,0.88928425203063,0.9273172289971106,0.928415490132852,0.9432958412328218,0.9396469306624774,0.9607380425199146,0.9465587724050586,0.891227740346039,0.9770677801481584,0.9767959512333386,0.9487017017325172,0.977602238396491,0.987718290643797,0.9882289506994043,0.944513214804039,0.9508259144307047,0.9721824456587325,0.9611675431001793,0.9892249226269147,0.757216781917189
30_01,c1,oc,4096,0.9527843319311216,0.8941456560041089,0.9242226873006367,0.9238970967957632,0.9369110715126383,0.9396216123552332,0.9560949971327857,0.9439758099472133,0.8955983004629916,0.979008682334246,0.970226177800804,0.9463879065869872,0.9763352338523114,0.9892899267925785,0.989376111891886,0.9505923981460684,0.9498647236462485,0.9701911039450187,0.9624289730845543,0.9880162253299284,0.7493930463656201
30_01,c1,oc,4161,0.9559734259741027,0.8952213711184162,0.924378892521177,0.9224131625805247,0.9412249511619385,0.9395234704372378,0.9584180000887887,0.9477169565150054,0.8992961597148688,0.978609156949859,0.9707078320370754,0.9397717013288851,0.9745599551792473,0.9879664296738824,0.9910838699583076,0.9455731077561278,0.9510399013618566,0.9659601974076681,0.9636130941518116,0.9891822420400903,0.7292553556405624
30_01,c1,oc,4226,0.9524934658021851,0.8857760869108109,0.9155440594970073,0.9098349372575595,0.94356615824423,0.9393739913693397,0.9555980992286645,0.9468559447916797,0.8964161479945443,0.9744550135374049,0.9622819319055529,0.9328449697245014,0.966918480450765,0.9845036850798187,0.989463719029007,0.9414700153708794,0.948066269424932,0.9607909131231159,0.9610148313968606,0.9884438315049935,0.7214400743515574
30_01,c1,oc,4291,0.9475794077993153,0.8884904653712762,0.9172965578218346,0.9022355168991767,0.9508811496411711,0.9399747386118645,0.9547555705392844,0.9480597770247416,0.898792306611577,0.9723756231140758,0.9605501355329349,0.9349162599871984,0.9580213567969338,0.9823295828338005,0.9901321040841453,0.93330353238385,0.9379886609359032,0.9553714464333124,0.9580748583248831,0.988727873756261,0.7183224534978885
30_01,c1,oc,4356,0.9502971106906202,0.8958812640528427,0.9179881684565405,0.9056497505117993,0.9554588993739975,0.9430772068050193,0.9541746118864978,0.9486692680913801,0.9080452313139854,0.9711032258535239,0.9603806324682022,0.9224596506895801,0.9565685254337369,0.9832116047748399,0.9909022081258594,0.9364538754287558,0.9361860975247286,0.9576385853180475,0.9614349830228485,0.9883987273430824,0.7196078865904629
30_01,c1,oc,4421,0.9541305415988189,0.8978413376516068,0.9195575219480215,0.9112748124894056,0.9579717081209185,0.9543238587075786,0.9591989690160851,0.9498158816360096,0.9113775731352306,0.9727761034047234,0.9624443626039377,0.9190366029183499,0.9644781951354969,0.9859087638390456,0.9929105516896766,0.9375038951572755,0.9338038560112958,0.9545399523283644,0.9628036457328192,0.9866326008979726,0.7093056779828035
30_01,c1,oc,4486,0.9581172008354936,0.8985311132118272,0.9199996202314435,0.9204755068763748,0.9596577081996036,0.9567102692818015,0.9581194141375112,0.9628394409749867,0.9037457411012654,0.97259641869692,0.9680084746774665,0.9199456105209013,0.9734623768650633,0.9842880531816557,0.9920232562707687,0.9439158403034194,0.9334661057984218,0.9531724241195954,0.9646657448337669,0.9894076665940066,0.7030640854434609
30_01,c1,oc,4551,0.9607379556440306,0.9064448472875088,0.931372267900021,0.9266836565564566,0.9648052260830243,0.9624084860543611,0.9607425831862643,0.9643306499968027,0.9129887710990879,0.9754892404729643,0.9701031230113175,0.9221547227723438,0.9733258925696111,0.986053403007654,0.9909594137423379,0.9513006739073628,0.9361550166270663,0.9544739912469883,0.9700945344380008,0.9891922159602976,0.719216060359962
30_01,c1,oc,4616,0.9632387583203195,0.9065712188990404,0.9290285120173076,0.9235592081811163,0.961814159774656,0.960737966716709,0.9570190465764777,0.9625024380281019,0.9086904623553488,0.9717001940471323,0.9642199713422012,0.9133464847749684,0.9760976142959701,0.9815969306749077,0.9892457581887228,0.94487639875776,0.9254810178472331,0.9529679378371858,0.964214068752728,0.9868528917526609,0.7168434822425991
30_01,c1,oc,4681,0.9604950140412876,0.9011932038573723,0.924563133902941,0.9154871472577554,0.9598177824386053,0.9561514005404749,0.9558144212752224,0.9605029364044927,0.9102601859075719,0.96685041239855,0.9581541766923425,0.9015729476426488,0.969271527517822,0.9770368300278485,0.9877166507077212,0.9283839283524535,0.9193839760780633,0.9528397817863349,0.9575432621759244,0.9833283591793694,0.7233910879382741
30_01,c1,oc,4746,0.9679203895606141,0.898330987436702,0.9312157368788626,0.9229642472278575,0.9633416742398226,0.9578240380627858,0.95778963477623,0.9641451140368048,0.9072881503157931,0.9641154822420587,0.9666914109349554,0.8910701471725626,0.9681402700325453,0.9752390389103807,0.985891508148049,0.9251317247909988,0.9225587541225854,0.9551340704724182,0.9555603997105172,0.9858161529699092,0.7133912083941848
30_01,c1,oc,4811,0.9714943264748573,0.9003691585633837,0.9337162930531056,0.9224407888549961,0.9588907995802852,0.9605693116996212,0.9574653869591121,0.962797578978051,0.9049915835693034,0.9667130535912419,0.9701795278631595,0.9030840273812822,0.972621094128435,0.9801592960300941,0.987946790752055,0.9327704195747929,0.924615161486883,0.9644447667694527,0.9526832761201407,0.9858651254222576,0.7369698250078771
30_01,c1,oc,4876,0.9718079381936795,0.9066793891926406,0.9453870619993476,0.9276955173192583,0.9500226555909883,0.9613975286487054,0.9566918108583393,0.9586587883627514,0.9110184809395452,0.9721073761667738,0.9705926457491423,0.9043964976173805,0.9700632283650324,0.9832060868131154,0.9891798224118854,0.9298189162800338,0.9274153797479691,0.9659177240632,0.9534904151558427,0.9849295271227636,0.7467314653662603
30_01,c1,oc,4941,0.9718949779927338,0.9124119327723403,0.949377425430032,0.9283584184513444,0.9409899341418677,0.9584680294363129,0.9581361674912603,0.9573928462489939,0.9070567136406896,0.9743633244748994,0.9692985910949795,0.907550339449753,0.9719478295608801,0.9826673621955839,0.9904308191259464,0.9279654950233684,0.9315323532927343,0.9687217928142116,0.960334946655389,0.9828994239879447,0.7603424389248256
30_01,c1,oc,5006,0.9684116803405786,0.912282617166183,0.9492858334056177,0.9240695304374741,0.9345092239446379,0.9550817429429788,0.960477819528438,0.9582894090834536,0.9061946640995396,0.9743545000667614,0.9657432992262204,0.9245038992899989,0.9701459764059338,0.9841739206336215,0.9905812650513209,0.9349512357314372,0.9313699507756752,0.9677837301937602,0.9634378943258788,0.9844189681132439,0.769015371924709
30_01,c1,oc,5071,0.9634668546111098,0.9194672057481567,0.9516273905950334,0.9284022751981755,0.9392111083467375,0.949389742681576,0.9607625928437029,0.963720090078841,0.9015344465187125,0.9747243653105528,0.9660044291376668,0.9317222538338864,0.9703440394477427,0.9816051249612602,0.9906742181960457,0.9345840429467615,0.9306306426335733,0.9672368719441071,0.9617261303966733,0.9835108691966019,0.7759790326199723
30_01,c1,oc,5136,0.962258506706467,0.9160362194958517,0.9555406300162539,0.9222514451269022,0.938505687329083,0.9468371602887242,0.9623588046332715,0.9509507894628327,0.9084611753819719,0.9766921494504001,0.9668132319239493,0.9326649163555207,0.9642817517699969,0.9806567786786672,0.9911006637521131,0.9297111976232912,0.9331757057833409,0.967732312673197,0.9699391789378772,0.9843983773043578,0.7845211810791777
30_01,c1,oc,5201,0.9619444242418684,0.9124713444479813,0.9546229639555802,0.9176850699931139,0.9361233086474002,0.9440789560860511,0.9619052847844848,0.951954784042705,0.9051381513408607,0.9751206793987186,0.9664117888157637,0.9446469195991872,0.9665524223931176,0.976940010285211,0.9898229973725735,0.9334511018630528,0.9329741067307734,0.9640358387554159,0.971088279366271,0.9852829570137297,0.7698460213819772
30_01,c1,oc,5266,0.9623964668689394,0.9165345727972942,0.9542590959075704,0.9182055312712263,0.9333315210563651,0.9444869504630001,0.9655470618084707,0.9536711303345751,0.9119534808238867,0.9814618778864598,0.9682692164495336,0.9512593004011368,0.9676756145291991,0.9808435734417505,0.9913644450300051,0.9407762031843137,0.9438229665765938,0.9665358539866173,0.9778027556327904,0.9864927060519837,0.7705809352063353
30_01,c1,oc,5331,0.9650808006988509,0.9228721755103007,0.9535009638295625,0.921198084688205,0.9357331884032037,0.9490540378231616,0.9643760735914734,0.9512352875294531,0.9111288038334758,0.9831539906713481,0.9714640473727801,0.955013332018274,0.9733487658408289,0.984705682509455,0.9888797684535964,0.9517589104994977,0.9502946363522966,0.9647895959685002,0.9766390363046646,0.9859682403541749,0.7707845054236501
30_01,c1,oc,5396,0.9619030044738768,0.9222055528784885,0.9526847642885944,0.9180592201715093,0.934670638425447,0.9470739438939973,0.9580147660613436,0.9478742122465877,0.9140551138714842,0.9785886140074883,0.9659611942048755,0.9632026300917905,0.974593389483726,0.9869118562609696,0.9876092382496008,0.9484880417593197,0.9452019782361216,0.9623947327741943,0.9759978169124972,0.9846679517676885,0.7850313199271443
30_01,c1,oc,5461,0.9547617224617431,0.9187826419459016,0.9473594070663004,0.9130460471143101,0.9442569255006321,0.9429315037083862,0.9507095540118163,0.939401529744675,0.9065016240553609,0.9732218851324737,0.9608417971587743,0.9618677716475886,0.9712120067784362,0.9823378338262537,0.9853361010790468,0.9425474694368217,0.9383070745787246,0.9591194841887294,0.971427049195103,0.9869284450615717,0.7904420450980318
30_01,c1,oc,5526,0.9591260028107484,0.9164437184320459,0.9424805440474937,0.9118483143633446,0.9532149180420513,0.9461865549040059,0.9465732245885228,0.9435067588575026,0.9025989063433696,0.9726300302073119,0.9645258325779847,0.9641467952288526,0.9736388653687578,0.9812167033328054,0.986995345884673,0.94437568496737,0.9375582038035681,0.9619589388405131,0.9693041386885831,0.9871897349019175,0.7902119381125091
30_01,c1,oc,5591,0.960813990711879,0.9088197428844291,0.9360740976753581,0.9090490153329979,0.9596484066985418,0.9449903611842718,0.9482354413872226,0.9499110463506647,0.8941917741295092,0.9693430423613707,0.9642123337445648,0.9607496856201168,0.9730729456927859,0.9802148799433676,0.9894696018397838,0.9489787836028144,0.9367675147529955,0.958148019865553,0.9643496905020508,0.9876634074827966,0.7879856090174823
30_01,c1,oc,5656,0.9621502579801546,0.9134774698144013,0.9404097007301045,0.9119164729973508,0.9622636267803969,0.9464406827785178,0.9402925051181669,0.946891700731981,0.8959879877461387,0.9676541319679312,0.9682737054789963,0.9559535728945784,0.9774151688254168,0.9795432438198416,0.9901767245198551,0.9498638381787897,0.9425454302696329,0.9619829203110805,0.9645022475607627,0.984579936399105,0.7865282067363921
30_01,c1,oc,5721,0.960622932460899,0.9071072463213538,0.9379571886951095,0.9041512479913805,0.9577265344076022,0.9505331922963408,0.9402400548643951,0.9433176759293029,0.903707098987653,0.9700766294706715,0.96915546786828,0.9564315000119303,0.9793946138933975,0.9800731298363893,0.9894819936959667,0.9491251421779784,0.943548754070792,0.9610999241461137,0.9658825340876868,0.98562764523906,0.7834227073589566
30_01,c1,oc,5786,0.9607294175671497,0.9064932476264824,0.9357134667263618,0.9064186126588166,0.9606431333908751,0.9545304490533397,0.9426225961825704,0.9507055028822132,0.9086013242856363,0.9723776489439545,0.9703784624735486,0.9568480388362872,0.9836936863341047,0.9842467469819337,0.9909894180273274,0.9528896464889903,0.943447278412343,0.9648173788546708,0.9619263223376165,0.9851467565586718,0.7795591743732809
30_01,c1,oc,5851,0.9609228995131258,0.9037413633929006,0.9323168507687876,0.9153894459441041,0.9619651217907101,0.9566417972253541,0.9456277719637721,0.9443585174960154,0.9007494275268568,0.9734334924240085,0.972489202984976,0.9457024164689947,0.9849289607802416,0.9863288301629528,0.9885679977328221,0.9520639390291027,0.9476604584750656,0.9655474795619203,0.9592303271860864,0.9830445601432338,0.7783175813194229
30_01,c1,oc,5916,0.9569319805601609,0.8975430261694218,0.934766186132297,0.9159023951250148,0.9479232676524065,0.9593756254535069,0.9480079078360588,0.9466646713757089,0.8982082257618421,0.9705110146338012,0.9752170948367578,0.9428881845704313,0.9847425300015691,0.9842729186294306,0.9859216203641957,0.954953507159416,0.9532836699153632,0.9648236893797202,0.9559621227119423,0.9807152173513851,0.7865622326554872
30_01,c1,oc,5981,0.9582140306263958,0.8982343184784388,0.9261946025618888,0.917961987332285,0.9435528466589517,0.9670683460119083,0.9498975097729935,0.9510610635247781,0.8932456258746361,0.9704734629397568,0.9748684782882852,0.9394319031429182,0.9819002266213512,0.9820454690508535,0.9852165389127004,0.9522675088646713,0.9465426272039701,0.9635236161119184,0.9617622821372637,0.9829820578834157,0.802656385027423
30_01,c1,oc,6046,0.9627136769443659,0.9004343071661067,0.9235782659231557,0.9182639938663031,0.9470502166736218,0.9648587633109422,0.9585327474898125,0.9490821377752248,0.8939352963127147,0.9766346400283219,0.9732976945924565,0.9355871512193807,0.9831354838340962,0.9813287367277288,0.9870045264009096,0.9488733103312513,0.9489916166998013,0.9643999880208362,0.9587085899979957,0.9853518985542464,0.7988695702725912
30_01,c1,oc,6111,0.9676010505028917,0.9086016824894102,0.9317125852054381,0.9251284352535762,0.9466473742053563,0.9716050273354655,0.9611452746544671,0.9550830066102046,0.9026846384834893,0.98460213391266,0.97456550018618,0.9345047657400929,0.9830389417163551,0.983178151260795,0.9874589468817424,0.9527686019471605,0.9561161360165188,0.9686532413626726,0.9636126523714158,0.9848289626543486,0.7934716241838036
30_01,c1,oc,6176,0.9627008032548724,0.9013233651432682,0.9347272376317873,0.9257144638323246,0.9425542936814395,0.9682758147540003,0.9637059130348089,0.9606891615042561,0.8992214354236863,0.984008948522074,0.9707533442474501,0.9294470302507314,0.9776825594243898,0.982938769114403,0.9843901436059592,0.951420748924528,0.957606409061592,0.9657431885343996,0.9611987112772401,0.983212720273,0.7761487996542552
30_01,c1,oc,6241,0.9564755896799995,0.9029831105443836,0.9395799700671281,0.9289113206887923,0.937466539226959,0.9653509155666296,0.9668138025226002,0.9514245077027499,0.901914027101751,0.9836134490180959,0.9715109408574035,0.9242237352434933,0.9733673847825646,0.9833970737137245,0.9849376039948118,0.9412636085912937,0.9573378525145145,0.9660603672593456,0.9602725916069755,0.9854588240384832,0.7769435526603271
30_01,c1,oc,6306,0.9491156232148689,0.8911779788710763,0.9322802536891549,0.9226620181354583,0.9329952712555044,0.9638175161301871,0.9661325346130728,0.942348475472618,0.8890609967878859,0.9817433482869184,0.9671358163891218,0.9182764518969692,0.963606762547667,0.9817994967008806,0.9807011539960705,0.9298938146774394,0.9524265386862879,0.9585503492211336,0.9572729219138505,0.9888905068373033,0.7872662529338482
30_01,c1,oc,6371,0.9428317147076783,0.8857339846381382,0.9240536080659253,0.9165360084543346,0.9354863793036784,0.9618823113184437,0.964403399271085,0.9320809537304843,0.8755574217331528,0.9751174277889912,0.9556175827972854,0.9116848231149762,0.952582734529839,0.9748800660550428,0.976901063513715,0.9187309537983598,0.9483150579022126,0.9524171061658239,0.951706998726495,0.9875311756823558,0.7910952944079931
30_01,c1,oc,6436,0.9400598761556668,0.8810632342352899,0.9158341178966252,0.9088252911165869,0.9352012984796938,0.9572647517528711,0.9648690979481362,0.9278698198931251,0.8727693445529235,0.9687777901028873,0.9463407426230395,0.8999476979920445,0.9363385750047263,0.9666665422633675,0.9688135346660769,0.9020559762865435,0.9455615090392934,0.9483971791445903,0.9452060325887972,0.9846974073128039,0.7920880623015834
30_01,c1,oc,6501,0.9448299636685543,0.8880063492572231,0.908082692079722,0.8992057894491884,0.935629101046768,0.9587001371875745,0.9658380052539446,0.93429792239441,0.8800159053423686,0.9646943776937414,0.9417223921471195,0.8939012648507356,0.9338364435786499,0.962435943500562,0.9700239737360757,0.8799762925129488,0.9377048291664933,0.9486979320465505,0.9511827408608474,0.9837496793550704,0.8019026658013585
30_01,c1,oc,6566,0.9509303383823834,0.8948856820474873,0.9049813314328058,0.8956590480292359,0.9517863596853997,0.9566422247473183,0.9656639521211619,0.9385497001153734,0.890607919892562,0.9647002175062929,0.9430530727367797,0.8829863013635304,0.9297254822147137,0.9676990294888688,0.968450354033973,0.8666642628301005,0.9305578866996728,0.9521346306999305,0.9494608485014036,0.9858616584349864,0.798741988570806
30_01,c1,oc,6631,0.9542111204018897,0.9041979587691051,0.9097992811698723,0.8961486148562896,0.956847546593828,0.9526273710206992,0.9690896818826098,0.9424542023557548,0.89675449169677,0.9635116147167265,0.9421858506514464,0.8848354234183681,0.9371586017364419,0.9689144201015506,0.969478019452948,0.8747908407857297,0.9382433580444134,0.9534236690445471,0.9466323671058466,0.9850173263715853,0.7889185455111841
30_01,c1,oc,6696,0.9540611674491701,0.910954565382537,0.9156623024628315,0.8931391503416821,0.9524194852297583,0.9573214323923483,0.9672645664927622,0.952300858938015,0.8881949368933056,0.9621592016741001,0.9489769364666109,0.8782154405494516,0.9343281143854816,0.970843933603131,0.9677826276481148,0.8822388350795942,0.9344769152862817,0.95451962455618,0.9532107492535412,0.9820964776555411,0.787021643917927
30_01,c1,oc,6761,0.9502303563788836,0.9022302342166828,0.9140855591521789,0.8882580825135225,0.9455698217688567,0.9489489181573153,0.9605621470164447,0.9457234675474573,0.8859589543617826,0.9584565187457146,0.9507612443820133,0.8872175536115978,0.9344177931088083,0.9699717190661493,0.9703983681758973,0.8885909987789806,0.9229659943396527,0.9539331931700586,0.9551649421447015,0.9805756127581253,0.8049078405939474
30_01,c1,oc,6826,0.9523419388048112,0.9129808343680631,0.9158138038096447,0.880361977729406,0.9491645191133766,0.9521197070073044,0.9601428755732442,0.9370890311803421,0.8949368834697665,0.961644524548127,0.9507140460393646,0.8965655568328574,0.9380746875620793,0.9723565312382875,0.9738167837546854,0.8918587128524631,0.9257326224247715,0.9588863559392223,0.9522694534804119,0.9818787281882201,0.8184393452812567
30_01,c1,oc,6891,0.9564422550123298,0.9135280200993396,0.9112940823570108,0.8848431649539591,0.9499080513512803,0.9620592445349966,0.9614165129482213,0.941513033549615,0.9016044509842647,0.9644980418896567,0.9542121232519282,0.9039458050068857,0.9454657184614776,0.9751999913868133,0.9786275505736352,0.8984359281408788,0.9270252485182142,0.9540233756389724,0.9582344699261549,0.9832495419297922,0.8185471755196967
30_01,c1,oc,6956,0.9557486135082426,0.9187572770338059,0.9136685701364314,0.8888397487538141,0.9504578957892313,0.9645290978488229,0.9668702730040689,0.9460243905424788,0.905155420176842,0.9668486756209378,0.9543051727782519,0.9200279242658368,0.9507350309133782,0.974156698052893,0.979525393748533,0.8959056054709682,0.9215635967785036,0.9513511389810144,0.9563984907582602,0.9817386339630744,0.8193342361946531
30_01,c1,oc,7021,0.9616183702475556,0.9229082952627078,0.9183837899373997,0.8982093873571475,0.9439883079373942,0.9694857974010099,0.9630564097485481,0.9451268570100301,0.9042145360767324,0.9717752090908963,0.9599466955360633,0.9205205521673495,0.9495836646040532,0.977163330925867,0.9796173475304474,0.8974344962599381,0.9210424406164788,0.9520237698282854,0.9615799079484002,0.980591284599017,0.8157308924312952
30_01,c1,oc,7086,0.9652901678141215,0.9324312572471015,0.925932500625948,0.9003864978124069,0.9470794184445863,0.9729826486951791,0.9612045497716678,0.9477280779419345,0.9138477666730044,0.9699117013549248,0.9590781498332865,0.9244784217089334,0.9505964172058083,0.9804460885992099,0.9822048158012514,0.896713967565981,0.91878010565056,0.9563914162145923,0.9661692603560751,0.9804129530695204,0.8185878503589524
30_01,c1,oc,7151,0.9611246528551919,0.9199505748403913,0.9265265445325213,0.8997016877332665,0.9406621243810522,0.9649910601514508,0.95655783781251,0.9389907937980166,0.9048846258745108,0.967655943641305,0.957304095882092,0.9180656295954485,0.9375848495197506,0.978003030579391,0.9793882913919251,0.8906167738499084,0.9208209031480209,0.9463050346432306,0.9552808619523002,0.979189506450069,0.8176914668292034
30_01,c1,oc,7216,0.9515679629092397,0.9156535842501498,0.9205873740849683,0.8976419076413357,0.9349030694010466,0.9618832793725286,0.9480324240758697,0.9308990676531633,0.8891936754026134,0.9579104998142158,0.9494658003782588,0.9195561196336506,0.9300393626541245,0.9734826965730594,0.980247319158675,0.8836727898596625,0.9167664897088841,0.9379292791293489,0.9492461147385767,0.9782556817560342,0.8257470126571721
30_01,c1,oc,7281,0.9471460610680391,0.9079603418200342,0.9198732088535019,0.8974501080741469,0.9238394281678786,0.962205860003331,0.9372556761577969,0.9211793871678635,0.8870881822341219,0.9577048022872583,0.9493224090524112,0.9182868461728029,0.9205888499750138,0.9729009779289384,0.9797540274789824,0.8700183782624632,0.9097165129114783,0.9398669667335741,0.9498828634165752,0.9772334364621551,0.8168006047690572
30_01,c1,oc,7346,0.9434883150886836,0.897570088645517,0.91540951591094,0.8942349192008417,0.9199429535861883,0.9542299844861377,0.9309389933411429,0.9112100302165109,0.8845463714973572,0.9521149455031789,0.9403503531478346,0.9152254178113458,0.9094063837224259,0.9693378052755366,0.9770814405542797,0.8572564182899994,0.909484128290764,0.931807791946856,0.9379417133019882,0.9755255470181143,0.819150319978156
30_01,c1,oc,7411,0.9403760892494208,0.9041841901604192,0.9131926678936488,0.8856990899084454,0.9138893387481369,0.9511726947643299,0.9297622966383614,0.9114321352345237,0.8830470119185799,0.9515430836748628,0.9338365442200056,0.9042910216229292,0.8973524596698534,0.9675042889334589,0.9765340526443124,0.8350418079599318,0.9082327099610359,0.9291551100246234,0.9325316562151351,0.9768121229619738,0.8072188707409519
30_01,c1,oc,7476,0.9397055564447067,0.9041276563426558,0.912968535510125,0.8876155924769167,0.902785941346373,0.951270964221538,0.9317751460845236,0.9174371318113138,0.8762921756939318,0.9484847710434771,0.9352781397708573,0.8902412989362917,0.8985776526534773,0.9650794073248458,0.978478897925382,0.8283164144779919,0.903193052003058,0.9210569173030957,0.9300299101627543,0.9788080048274848,0.8075586968760777
30_01,c1,oc,7541,0.9365028310339635,0.8982667773560242,0.9053707699938397,0.8759292799710047,0.9021058289981267,0.939957273922517,0.9302819254487487,0.9182883373465964,0.8662078355127458,0.946109045497967,0.9335568794553324,0.8784843777648573,0.886329179361976,0.959464603150858,0.9721480958244194,0.8164063207911249,0.8897565956157022,0.9145454353633566,0.9214183029389449,0.9778774031970652,0.8086378389253945
30_01,c1,oc,7606,0.9377491401618546,0.8946960869269791,0.9114762938027492,0.8707005193977393,0.9077907734968286,0.9435147301308903,0.9321072484209129,0.9238907039780365,0.8642055095625575,0.9489964845845504,0.9321393201569829,0.856269549886428,0.8734206227913702,0.9618371472606575,0.970420246934983,0.8110327079965688,0.8942997286569793,0.9179087449292472,0.9176576088642079,0.9803541270102483,0.8016083458263866
30_01,c1,oc,7671,0.9424284987472886,0.9019006605801534,0.9117316582171674,0.8681239405218892,0.909474460615011,0.9405138231239357,0.9327132151449793,0.9228374076482303,0.8709093297350903,0.942575697989796,0.9312313659325765,0.8522203191590088,0.876054334586703,0.9586915659880477,0.9695837035460088,0.8149413656796932,0.9038721805665622,0.9189475481043077,0.9136479253138527,0.9809305428939945,0.8072068124486872
30_01,c1,oc,7736,0.9404633605492952,0.8880821154790104,0.903856614594456,0.871656433290004,0.9090045366376415,0.943465452115853,0.9325337576561098,0.9193291363016874,0.857461063149386,0.9465316060453267,0.9386326913861471,0.8555457277667649,0.8864042055452503,0.9539836550916563,0.9692375656938149,0.8248649414794695,0.9045924387634687,0.9192375594669354,0.9100744396593474,0.9831140442979198,0.8019277471095722
30_01,c1,oc,7801,0.9453042456836229,0.8900909676248416,0.8986090012937435,0.8598756075778898,0.9102505177728039,0.949094564866748,0.9285052932158022,0.9232413544632571,0.8594471200904154,0.9507326468089227,0.9336430132717238,0.8569889853984867,0.888250179801114,0.9584249786775532,0.9738461200931465,0.8203786461623663,0.8974482650923001,0.929697517935137,0.9162724885333636,0.9847359106246054,0.8118840021043929
30_01,c1,oc,7866,0.9543095280558384,0.8956494984485501,0.900072229732131,0.8556647270288884,0.9063440722485293,0.9498252557125318,0.935946903694534,0.9276184058686435,0.8686821677200813,0.9542195028220869,0.9221993640350963,0.8534732136345136,0.8944728543061737,0.9673530451901007,0.9773956472498273,0.8130275221212023,0.8920151376727482,0.9357789822627269,0.9260969404807197,0.9868868621080312,0.8043029238231013
30_01,c1,oc,7931,0.9603877620159399,0.897621581902583,0.906190858396361,0.8560121732721414,0.9110526688519452,0.949486584300066,0.9416220915338163,0.9298886328789053,0.8689100535105814,0.9503572078093497,0.9199631538377825,0.8462095811075003,0.9064365884667575,0.9696818104046327,0.9802709198641634,0.8188939336388152,0.8992523554478609,0.9358462682886968,0.9295898754413415,0.9865582325740526,0.8166308284678563
30_01,c1,oc,7996,0.9627542356468907,0.9074601513535028,0.9043322766381232,0.8660051460850352,0.9123593872225794,0.9570177659923682,0.9472628975614064,0.9304540318313933,0.8831232404886727,0.958084184800323,0.9295530511073041,0.8598679090659067,0.9220178534324869,0.9736370077495009,0.9831809508016154,0.8360633117784674,0.9092265754702943,0.9459457985166317,0.9376210175515446,0.9876892931465283,0.8168068625703894
30_01,c1,oc,8061,0.9608826521759046,0.9033462984235767,0.9148052509290397,0.8762722247487037,0.927861296189946,0.9629497836487177,0.9551673576189018,0.9455209303351579,0.8920536753981247,0.9625533806834428,0.9370245798102266,0.8743409770974501,0.9382075966890601,0.9753701424793726,0.9860430318060427,0.848839072904439,0.9109444062965766,0.9455457076633379,0.9382667719138232,0.9886536537420088,0.8284524189860089
30_01,c1,oc,8126,0.9603259850463611,0.9025079687212607,0.9225202378820423,0.8854193826130895,0.9395621251491566,0.9647177700146087,0.9621000113314186,0.9459619963743173,0.8939241089436392,0.970950100924617,0.9480827354981199,0.897883097795585,0.9446345100696533,0.9783079430478415,0.9870933455411581,0.8650390689768525,0.9207697352866436,0.9494368743973703,0.9494036972151678,0.9885065872225371,0.825082592027298
30_01,c1,oc,8191,0.9634798379466312,0.9016720757798369,0.9228758737495286,0.8937390260897469,0.9431748022875445,0.9697550532350924,0.9638447162245911,0.948033585814495,0.8994867179221403,0.9693200182153707,0.9499141179861551,0.9181620195744221,0.9523016358453337,0.9805535441117834,0.9866878901044573,0.8828130531736316,0.9287087403075468,0.9591094562201616,0.9555218791819614,0.9874815245752483,0.8284167126454549
30_01,c1,oc,8256,0.9712760939928899,0.915005337156553,0.921390971594004,0.9034061246451824,0.947953968097456,0.9709802025357903,0.9643376949330298,0.954536024568114,0.9064269461994457,0.966236868015886,0.9558547801178918,0.9204737097621937,0.9632464903937279,0.9835450259917913,0.9854673556096067,0.8998024752116899,0.9350870717833042,0.9657510304585152,0.9599574339001177,0.9884408076094242,0.8268296863278196
30_01,c1,oc,8321,0.9748770484112879,0.9209694913343043,0.9265187338040525,0.9109370455741879,0.9544866584177023,0.9748594742185782,0.9688110947567823,0.9627772882522427,0.9116207785830545,0.9708923434565117,0.9596044067653123,0.9276869853417153,0.9692752161235715,0.9862088710798901,0.9881244954724118,0.9097514767215694,0.9378958893049226,0.9713068482744047,0.9661023835729236,0.9874899178256482,0.8194547003848315
30_01,c1,oc,8386,0.9753062350938457,0.922663900093209,0.930101444429943,0.9141290550155176,0.9506301877970286,0.9715239087847101,0.9631772498369692,0.9578321766052452,0.9150728102984546,0.9736772289275817,0.9608050490207383,0.9284660699718711,0.9732142375258688,0.9864924999014679,0.9894207229198078,0.915888660305056,0.9462998044167147,0.9753239016770366,0.9702437725914156,0.9884423824568519,0.8173332875879858
30_01,c1,oc,8451,0.9779155284994429,0.9287088847324283,0.9375339737036512,0.9264705299720617,0.9565558634621503,0.9722464059433181,0.9649956944195518,0.9588020107707432,0.9186640281520405,0.976498551760411,0.9726918047008526,0.9382885538359367,0.9830239538946908,0.9905129101307282,0.9891579463189395,0.9373397242471025,0.9595342845530904,0.977115699806447,0.9735807410567505,0.9889598378104156,0.8203623300031174
30_01,c1,oc,8516,0.9754345657840892,0.9253251203673278,0.9391818915923996,0.9296579233039013,0.9592327169067516,0.978331208932339,0.9622749744677906,0.9589119987145718,0.909836377372821,0.9806308624026265,0.9766129020738523,0.9476448689988021,0.9833521521194989,0.9920409457548088,0.9887186316583995,0.940613171378551,0.9644394484561726,0.9784679841818013,0.9740672619870528,0.987743544623623,0.8282845476573801
30_01,c1,oc,8581,0.9719008008511609,0.9258366954381697,0.9400165485605402,0.9228065992800156,0.9592731821937206,0.9842859972383646,0.961799075817043,0.9579912545007844,0.9150014929619877,0.9834275319641274,0.9800356542785242,0.9587318627650709,0.9826796907316023,0.9906798832267065,0.9888234461322876,0.9409224741056257,0.9601113280317107,0.9737396427948447,0.9755576855091701,0.9904427663279627,0.8188684211600328
30_01,c1,oc,8646,0.9669879914302736,0.9190791408990643,0.9436603179971288,0.9159523283803623,0.9588614307653471,0.9851919177657587,0.9616259586807495,0.9540391503065738,0.9069994420244845,0.9810162114816756,0.9765674799141899,0.9601097321038491,0.9813573343994654,0.9888915185779578,0.9888694012943815,0.9407471842189216,0.9601990156870581,0.9691310552591155,0.9728899247330812,0.9861448583518255,0.8255746603684987
30_01,c1,oc,8711,0.9666266594916275,0.9174476408999761,0.9302039727441723,0.907992484789196,0.958506392404087,0.9827840705867417,0.9578582677190455,0.9437068221112827,0.8989325478982471,0.9760625191653819,0.9714445205109753,0.956029114178399,0.9748331358417796,0.9875173542608573,0.9859372542735516,0.9382407502569765,0.9584820012442233,0.9665866626954301,0.9726592756233208,0.984522579807387,0.8092625108573294
30_01,c1,oc,8776,0.962106117954891,0.913776469376159,0.9198880156325393,0.908268381369017,0.9516924004667151,0.979081750634388,0.9503044877962392,0.94397660406591,0.8941834069280339,0.9700879956507421,0.9665175581656021,0.9487940564251193,0.9694276206511757,0.9861930838128125,0.984532525847571,0.9347803057842948,0.9527511470672855,0.9691493013021941,0.9645448993292784,0.9861428003773396,0.7913243760891284
30_01,c1,oc,8841,0.9616620015653838,0.9207384031267262,0.9222670592876283,0.9045090665341384,0.9533266210843061,0.9717705682790055,0.939675651930344,0.9427767314627443,0.8879388575717116,0.9697725537192033,0.965526055054911,0.9374035361737327,0.9705065943299606,0.9834896675674124,0.9841590111019474,0.9285368651084537,0.9467609452116386,0.9658461552591027,0.9626810480374451,0.9890150170852532,0.7923609045621639
30_01,c1,oc,8906,0.9629218216790293,0.9086421257812534,0.9183573133846468,0.8990197044853556,0.9519092715821718,0.9708108093658235,0.9264628359119573,0.9340074707728316,0.8850601182728176,0.9733051643578469,0.9646807082198435,0.9392407400213142,0.9725115085914251,0.9858521159145004,0.9868370322874052,0.9274006117486883,0.955484336005708,0.9732309725711639,0.9675002115898496,0.9859451878078294,0.7972116422629844
30_01,c1,oc,8971,0.9599777623294591,0.8991342076097113,0.9155942343585349,0.8931468038721927,0.9543468330706399,0.9677032843563682,0.9206746886498406,0.9372693824822795,0.8770123537431782,0.9770764066571361,0.9648154151793078,0.9360992947987116,0.9748775655566876,0.9854959449310946,0.9869348884655312,0.9238159670062844,0.9544607881732595,0.9736482040123791,0.963152076432283,0.9850673359142934,0.814039801259583
30_01,c1,oc,9036,0.9603193342328066,0.908445638626513,0.9182836818850703,0.8928429722461497,0.9628915147628833,0.9686911617644729,0.9240864747413569,0.9487441866435298,0.8749268045943372,0.9808078746760632,0.9661168374917503,0.9361190414560143,0.9752979496177223,0.9862731981717249,0.9871797228120426,0.9240875010869718,0.9496366185927703,0.9737768404911062,0.9705786443410844,0.9891319797689557,0.8088430857766646
30_01,c1,oc,9101,0.958540956939299,0.9120677752413768,0.9162682572240637,0.9023327552448541,0.963783018562916,0.9675930924304084,0.9341221014182141,0.9491880297985955,0.8814725505740514,0.981016055788839,0.967632404666602,0.9402403322864015,0.9697356357219961,0.9840851085383021,0.9883667918157262,0.9156110937945907,0.939534906741208,0.9696780662979045,0.9680866687260298,0.989614835213015,0.8016981334131171
30_01,c1,oc,9166,0.956607039571829,0.9163103322465063,0.9148073307643027,0.9067205114685473,0.9654165852031503,0.9601990660897106,0.9386612471393031,0.9541920450688964,0.8947099645104698,0.9803369704557026,0.9678254412594157,0.9384419742326442,0.9677233733116682,0.9795511653948459,0.9887870600230779,0.9270561443662997,0.9379944326914729,0.9661040769862688,0.9677937032672597,0.9862724499952472,0.779970231689789
30_01,c1,oc,9231,0.9631468702593605,0.9199038295235998,0.9130971799303851,0.9106995492365573,0.9710611464970428,0.9658166942788508,0.9494096013351321,0.9606101444808878,0.8992948703929241,0.9783326617477965,0.9639625073261107,0.9325902536628852,0.9732559637121263,0.9778107157133908,0.9877165713263992,0.9299866463856106,0.935978110414104,0.969163847798988,0.9696499859251528,0.985896965898746,0.7944198412416966
30_01,c1,oc,9296,0.9695622543553658,0.9263343620519541,0.9199348549884204,0.9181210082564831,0.9719899281080326,0.9641877588294815,0.95132661409432,0.9661596572423977,0.9158105288878784,0.9806117989920207,0.9677965775920284,0.9232989532835286,0.978305538252176,0.979834621170968,0.9856031104012761,0.9244436379209364,0.9467283316746691,0.9780644707775215,0.9746717067656492,0.9869517092145961,0.7904114048087547
30_01,c1,oc,9361,0.9691365283562144,0.9354390977547966,0.9277321994679241,0.9271812428964987,0.9698581347060443,0.9619903118019707,0.9506258450587697,0.9666852156496538,0.9162790621756708,0.9821837889712226,0.9760747578895752,0.9200114082870743,0.9810017185761674,0.9840429001534382,0.9867856092570061,0.9239371539187092,0.9532370366362675,0.9794272598270929,0.9774975937698246,0.9865910192699665,0.8099312815765283
30_01,c1,oc,9426,0.9721083578669789,0.9414662008029566,0.9349625594664731,0.9262767178964807,0.9728588414679248,0.9647865988240388,0.9550883083673828,0.9707296363953569,0.9215952647867024,0.9830056328927139,0.9795097911885396,0.9227258563946573,0.9843049285326456,0.9846172349529586,0.9866205333658418,0.9365121485750272,0.959060443401642,0.97936335808599,0.9783601617233634,0.9862842530726078,0.8218738531098518
30_01,c1,oc,9491,0.9729545153736346,0.9410455738404727,0.9391230363039719,0.9285071027551695,0.9703144159394219,0.962269681758533,0.9573565780987222,0.9725309740729097,0.9351440960343933,0.9857255226700559,0.9746268507245412,0.9205193472994221,0.9845407173848854,0.9868970415086494,0.9868144090185714,0.9384982364467168,0.9596764773197514,0.978304911005605,0.9752474259881,0.9868140612433082,0.8089640124240858
30_01,c1,oc,9556,0.9695134877057127,0.9429320938261694,0.9374596051741408,0.925508776535701,0.9701062293877837,0.9563894896187949,0.9573386661813389,0.9685897022956496,0.9333178864208362,0.9832751609167437,0.9686915535292201,0.9197997022082078,0.9837002391420915,0.9860397034973816,0.9872947606664367,0.9334620663172605,0.9505803173697189,0.9680317030012869,0.9732909141682132,0.9887897701870703,0.8020291284604366
30_01,c1,oc,9621,0.9704423701479717,0.9364465122409061,0.9393588456148212,0.9245442447982992,0.9711593451912711,0.9541159265632494,0.9565611158902854,0.96545302374261,0.9336467103756275,0.9813311535316258,0.9618974155461176,0.9123896123007673,0.9787990646248986,0.9856488559063713,0.9852396682532728,0.9328215038398108,0.9475982804194176,0.9606790425915482,0.9712046235946503,0.9879436896619074,0.8012722695365967
30_01,c1,oc,9686,0.9662117478188099,0.928173102121268,0.9366427381051482,0.9166532023234477,0.9710635333167329,0.9529142704030009,0.9620308233467868,0.967396138811492,0.9286366193246677,0.9796428108980815,0.9597165502365341,0.9056051390824565,0.9755476795030318,0.9825752406535675,0.9832400168630783,0.9307442322287545,0.9473100366374547,0.9579305228665331,0.9662423371039208,0.9848065980306842,0.7920007944519619
30_01,c1,oc,9751,0.970247067656832,0.9204258494651385,0.9334631600262515,0.9113787317350222,0.9748087592035523,0.9461041871802418,0.9595374951768701,0.9683145806078887,0.9240062402058845,0.9750731656065607,0.9592160850526024,0.8891377468131371,0.9771496412127084,0.9773221269971546,0.9838688439971933,0.9316179612094844,0.9552995306726502,0.9603424496309833,0.9673628442583823,0.9841183670618746,0.796496325523846
30_01,c1,oc,9816,0.9729373284534154,0.9220351010996218,0.9384672771128298,0.9111789862032329,0.9743561471079353,0.9483343206084458,0.9563258171404284,0.9693030349873136,0.9273216283048223,0.9798334649071875,0.9621031352228411,0.8903201598770102,0.9755132941001751,0.9800762528872244,0.9856388415584009,0.9213442212889019,0.9571893030837143,0.9670709306628722,0.9683035098001962,0.987045911590091,0.8077282219333614
30_01,c1,oc,9881,0.9734951881323787,0.9186800879160305,0.9355861541505479,0.9053847879009669,0.967044980603475,0.9369538630466568,0.9441339011323049,0.9631797648981663,0.9262055538611941,0.9810831969902456,0.961511259820344,0.8899308859427834,0.9737596997322248,0.9801671570215709,0.9851511959404027,0.9227889057513624,0.95866733779165,0.966896054109865,0.964269590167221,0.9853772538749467,0.7890214296816869
30_01,c1,oc,9946,0.9706702549846229,0.9195231142928705,0.9224515549911838,0.9013666200860883,0.9635178653082115,0.9360892026130085,0.9399209505787312,0.9596837166131692,0.9128108017531738,0.9774337434324302,0.9637300082188727,0.9018230167615814,0.9704732333922758,0.978928324219958,0.9847372880600191,0.9297789338657211,0.9504879051996303,0.9608524354038057,0.9566362794934543,0.9847180800258123,0.7686600483793241
30_01,c1,oc,10011,0.967253575432693,0.9089240300134305,0.9162074963811992,0.9085442122413738,0.9605883287050935,0.9319038644621501,0.9300152986967302,0.9581015136257571,0.9182091145023803,0.9755023963338172,0.9549825599358381,0.9064107779191722,0.9657716453374607,0.9777406211728487,0.9847925214674973,0.9264911711007906,0.9435470006534638,0.959641904970302,0.9544227998869755,0.9847848263430158,0.7593872691275022
30_01,c1,oc,10076,0.9568148870765361,0.8983911100839139,0.911719806555824,0.9051676470549523,0.9535421451896945,0.9296679024844222,0.9231878635810115,0.95132499297026,0.9114215601046457,0.9761483917312608,0.947716094146285,0.8972768449386606,0.9506823255131387,0.9753870872738223,0.9836792132213215,0.9058448280718883,0.9351127031408395,0.9525784317541169,0.9479649560094698,0.9860087105281661,0.7471209146366395
30_01,c1,oc,10141,0.9495074983230413,0.8898673540171008,0.8958874397613514,0.9026939391075425,0.9454689105705337,0.9329193919518838,0.9248501925449487,0.9461334727238708,0.8986413144754688,0.9743643187386855,0.9488039508456773,0.8963041314150441,0.93696263623711,0.9721397091937504,0.9818073944130381,0.8924246622208301,0.9268166934765526,0.9493377785783496,0.9464141029780215,0.9868997594894698,0.7674764774580384
30_01,c1,oc,10206,0.9485917086715914,0.8812871373800872,0.8966289701409013,0.9032213078386504,0.9427468312937277,0.9354097348804726,0.92828893321739,0.941554650838661,0.8976486244707259,0.9692887815526786,0.943122593917261,0.8999176580442074,0.9344462243429668,0.9653663280415846,0.9747479928702447,0.8971979434829022,0.9267905465404606,0.9517778695864225,0.9429728586203798,0.9866577825519762,0.7739036740182477
30_01,c1,oc,10271,0.9450486771803007,0.8847132291394212,0.8975953058369397,0.9000449440207234,0.9298692010182602,0.9401332392161411,0.93128152594371,0.9374492314270599,0.9000619809674018,0.9628473755574207,0.9429903776704227,0.8965932669230211,0.9239246320303227,0.9622052196823062,0.9704077792873015,0.8863413554746924,0.9246149355955483,0.9521312083177184,0.9415473077215895,0.9847285780662782,0.7728088683156308
30_01,c1,oc,10336,0.9522127024571858,0.8923650489278939,0.8907811702237656,0.90202590411878,0.926470377838085,0.9525976411966541,0.9351829899362925,0.9439263715639136,0.9070731556575837,0.9571156792651566,0.9451079175888337,0.8951448127510664,0.9280649421709501,0.9614794004639513,0.9756520242124299,0.8811676110387376,0.9227104900175668,0.9535203095116865,0.9375268761112933,0.9868020660631982,0.7907569262235555
30_01,c1,oc,10401,0.9467627857582598,0.8925636966156162,0.8944034947102044,0.8926745485754288,0.9139322988708489,0.9618740830265763,0.9324363069798759,0.9375193117973011,0.909835471496,0.9583285203678718,0.9358616846077031,0.8929474701124006,0.915467997167528,0.9660071499480948,0.9753776163253784,0.8738056509617413,0.9117872525335371,0.9520174713042016,0.9352949222220943,0.9885441777559704,0.789177069505809
30_01,c1,oc,10466,0.9427245097453367,0.889006434127415,0.8933987529697464,0.8865402637354255,0.9060922980085093,0.9538850389899167,0.93474881011071,0.9348548323084627,0.8948036528925399,0.9499284743506627,0.9340492536324482,0.886873868334789,0.9108846064437749,0.9659607529270706,0.9737515469663373,0.8731632738568654,0.9086070150205364,0.9458706667279025,0.9281427433917192,0.9871310236280545,0.7978024799461484
30_01,c1,oc,10531,0.934416343970952,0.8828391146860725,0.8949836915865469,0.8844872811919771,0.904771265089956,0.9514238420274906,0.9402096215082039,0.9351528633525028,0.8869977380995652,0.9440074136801825,0.9300086449638915,0.8741135932712036,0.9128558732617928,0.9678570604799671,0.9772117476938252,0.8644893257898428,0.900731221012356,0.9414068354342194,0.923689604635979,0.9855143618136775,0.8091038670966562
30_01,c1,oc,10596,0.938747320229649,0.8753843803766697,0.896726639111348,0.8831844219342457,0.9015183420437582,0.9481104697834317,0.9448013446870315,0.932750118196372,0.8845706281101168,0.9411917737164837,0.9224783681159356,0.8600410038870724,0.8975065904491859,0.9672021842519116,0.9788823476267623,0.8491419603905002,0.8948112133531132,0.9358937580556345,0.92190875239277,0.9855421920916857,0.8173853688172856
30_01,c1,oc,10661,0.9396367393986577,0.8850241461533336,0.899836589822685,0.8703121514991943,0.8960555214918021,0.9520664497952214,0.9516008710825764,0.9290804019794543,0.8777417993748623,0.9435068027258073,0.9275222889409435,0.8571323841245925,0.8969636624400075,0.9688614222435319,0.9801919924108593,0.8440654724864487,0.9021472534320375,0.9362225118693027,0.9220564967193152,0.9882508787636566,0.8187776088502532
30_01,c1,oc,10726,0.9505808247743118,0.8959170328701752,0.8950951718625884,0.8705009396343195,0.9024188131913284,0.9528236346293186,0.9485820105220577,0.9345597185645825,0.8876013206656843,0.9424874747924644,0.9274867928305424,0.8660578812544302,0.9175699167121736,0.9706773590849203,0.981926364666509,0.8611860835366755,0.9070525797527175,0.9423792285407067,0.9263591844245944,0.9845617965024792,0.8264386623542994
30_01,c1,oc,10791,0.9523616249596071,0.8934174434184922,0.8929775685469158,0.8662334768696491,0.9139776240122014,0.9499990365785306,0.9481491865479668,0.9416264222310279,0.8797157087765923,0.9415014835998344,0.9302629705336853,0.8829024274010167,0.930043069825467,0.9687057903991012,0.9825930657811279,0.8706645361481279,0.9121983357115032,0.9443247392473282,0.9262705451237767,0.9844242694994213,0.8225192338903414
30_01,c1,oc,10856,0.9530102115855915,0.903238820830307,0.9036846534628041,0.8788768700231158,0.9187266680222339,0.9504591241877719,0.9496784867442938,0.9544508327100936,0.8771020311364879,0.9484852970040679,0.9451874574516209,0.8896487293979698,0.9419086908553725,0.9749557281514372,0.9908121121618981,0.8823432619831546,0.9125007398005388,0.9490733140797555,0.9282071388565352,0.9870165388269291,0.8210375216725846
30_01,c1,oc,10921,0.9572312054480253,0.8933176474503752,0.9022008802464202,0.8782788152462923,0.9224942277958168,0.9446067382739223,0.9476875434963001,0.9536182926260036,0.871667267960936,0.9560254615504354,0.9444370774571899,0.8937955044685488,0.9487986322045748,0.9759389142955796,0.9939211126414077,0.8896840472332411,0.9109928592740996,0.9481444288801157,0.9301733298105418,0.9903807113293268,0.8203764306216168
30_01,c1,oc,10986,0.9578334599286777,0.9012512406711494,0.9050307166924725,0.870685851994599,0.9192298336903147,0.9424586219555676,0.9427611203272925,0.9457424001350357,0.8655486177791691,0.9595483848683324,0.9435352418979325,0.8970907968902894,0.9490069022868128,0.9789451574802076,0.9916237259921004,0.9013697810893663,0.9108730440766507,0.9487774118692077,0.939161207135816,0.9896888453979744,0.8216588541587238
30_01,c1,oc,11051,0.9521971726418856,0.8966522540131542,0.903968269040067,0.8789328858328983,0.9189722428188007,0.9342205738818303,0.9466627091471913,0.9478078109438117,0.8594301210999548,0.962013185404538,0.9530315448485854,0.9092767376297093,0.9562488314322434,0.9784982950482054,0.9916178191449293,0.9048362793361018,0.9092346263578146,0.9406007039263585,0.9377473808126061,0.9905509713059566,0.8270075618604698
30_01,c1,oc,11116,0.9472816543146401,0.8959179001390035,0.8985769897009066,0.8818507365730749,0.9311321833909515,0.9397202236929797,0.9470982261444407,0.9536171683885722,0.8587552230701971,0.966171522357667,0.9534518329625595,0.9182541923957075,0.9635512992270268,0.9747577306435253,0.9908680327952587,0.9141281016131924,0.9077472529397536,0.9369982648156269,0.9454072695598339,0.99081942011323,0.8229417156252856
30_01,c1,oc,11181,0.9464389416999232,0.893369619773369,0.9056189522686445,0.8854691532483889,0.9374850471127146,0.9395644776945846,0.9526725647626274,0.9559414713110654,0.853830195511525,0.9689551573677174,0.9532044987711245,0.9318089861162486,0.9615941191173628,0.9733785976500112,0.9907477735568052,0.9194577733298736,0.9055593812543016,0.9315899567982551,0.9442593600308816,0.9910845722295328,0.8199469630980614
30_01,c1,oc,11246,0.9455736347719064,0.9011350687872035,0.9015348016729752,0.8816895143280522,0.9441072725442382,0.9410050311832635,0.9529506756240411,0.9538839320837387,0.8608430800180604,0.9701848963160611,0.956407820185516,0.9310110265903825,0.9611197121452012,0.9720179428194059,0.9888257139937816,0.9193755129209567,0.9009054562668984,0.9268110584754127,0.9515691307565977,0.9914166499558236,0.8307325792652505
30_01,c1,oc,11311,0.9407077662762071,0.9005793699422442,0.902615546529646,0.8915003051558673,0.9501099943569693,0.9417014674470205,0.9598947246575693,0.9566390953315919,0.8602669365580515,0.9723998843176814,0.9571698628331894,0.9400118580691283,0.9641975390687468,0.9683209411890001,0.987813418928032,0.9246156250526683,0.8973715583704958,0.9245689079135909,0.9559188794111257,0.9909065389582143,0.8340462927433642
30_01,c1,oc,11376,0.9322892252753535,0.8880244888705,0.9081594337345322,0.8899089893506342,0.9549145135127101,0.9382382457312253,0.9616419037475757,0.9564783839857626,0.845826277831709,0.971272612056537,0.9578621789804,0.9366596297003715,0.9594608976916975,0.9658883121440196,0.9858873606203326,0.9235532413729619,0.8979097740197759,0.9212955091277532,0.9558972537574535,0.9910372866410554,0.8346761701025001
30_01,c1,oc,11441,0.9389340035705692,0.8951007200487732,0.9222920544447069,0.8924640523798377,0.9584462762447483,0.9495390588150122,0.9668549429754006,0.9611993412425097,0.8581164514924162,0.9708221612292657,0.956680564545188,0.9318753433211214,0.9615953498355634,0.9617637991391863,0.9843146444723878,0.9236197277003089,0.9107950844294108,0.9266824184991751,0.9558158873782352,0.9910064842605871,0.8263636640724283
30_01,c1,oc,11506,0.9371981752427763,0.8971961949217341,0.9238059258546,0.8925601279546287,0.9648894431350123,0.9534046465325736,0.9712987832587928,0.962274057765269,0.8699320488904482,0.9647871132094747,0.9553334328989211,0.9279457448280424,0.9599767148924823,0.9616551887331473,0.9808890763406619,0.9249293805316811,0.9158750910715698,0.9313385494319858,0.9585765634192178,0.9890844625882976,0.8382552232395267
30_01,c1,oc,11571,0.9393557351729137,0.9010562491509179,0.9239861273085952,0.9042705295710675,0.9699453101162449,0.9564643958362218,0.9738612590278685,0.964199034073863,0.8797392230120626,0.9654948334276187,0.9605509670585312,0.9313953203747682,0.9667569206363824,0.9608539384110335,0.9801847070570622,0.9275129526961375,0.9232534233782278,0.9384936290049687,0.9606471698723015,0.9876183394416936,0.8448353119071148
30_01,c1,oc,11636,0.9420577250868022,0.8986223807435071,0.927270907139871,0.9124488191918678,0.9741963195392515,0.9559864926850173,0.9762868669648147,0.9683562230918863,0.8776077724491492,0.9656239103992087,0.9663454981869534,0.939092281729027,0.967861913485082,0.9574641894981766,0.9792274976472755,0.9244810864182125,0.9327590703198242,0.9496325172081566,0.9589464618890529,0.9860120854778103,0.8415376676829059
30_01,c1,oc,11701,0.9513928450106488,0.9094765293265669,0.9291454684482318,0.9186935669436666,0.978147246323855,0.9618219177805051,0.9752856655241307,0.9690678176325173,0.8887580290812256,0.9639307873216367,0.9677845801937175,0.9373491584554041,0.9728215637266603,0.9599241161728782,0.977527424131026,0.9330635167758781,0.9444648939119226,0.9547591236691803,0.9649998285673164,0.9868890060028218,0.84767323661262
30_01,c1,oc,11766,0.9528406757785812,0.9096909059998958,0.9297231196650646,0.9188833055683588,0.9757458010969359,0.9590895704902256,0.9737208240429328,0.9674493826190191,0.8843731947157676,0.9612247128526877,0.9711757589879555,0.9397742826922626,0.9737817351728976,0.961097939893551,0.9774109168537347,0.9339838334350226,0.9446711907596406,0.9575833227754543,0.9571755413883203,0.9865654775032547,0.8507586150699882
30_01,c1,oc,11831,0.9594361224895737,0.9150530494230866,0.9310045691267361,0.9199532426187992,0.9752255771917533,0.9594430525612849,0.9674626169632415,0.9662522358950754,0.9001508597873447,0.9673062633978252,0.9760591964200216,0.9349409406459959,0.9760810958990404,0.9647056048465937,0.9790739990245202,0.9367190649447428,0.9540428466208382,0.9670077933291643,0.9614434250325048,0.987030549485213,0.8414912524017509
30_01,c1,oc,11896,0.9605919357454791,0.9079008680850329,0.9381941194687733,0.92127037955242,0.9751987039862064,0.9608299508878002,0.9706209871831397,0.971364900412888,0.9022880954022495,0.9679983474824779,0.9772747980235239,0.9469283450559025,0.9831851613824941,0.9715694476090871,0.9803834036463729,0.9462658630681499,0.9580594588436094,0.9720558319873464,0.9593385068827226,0.9863598357408279,0.8258456829266271
30_01,c1,oc,11961,0.971656552941191,0.9212971698295851,0.9410683987513992,0.9193090330798794,0.9735293817752277,0.9632725731693847,0.9719437391566024,0.9720858313764408,0.9134649493814351,0.9679250953489439,0.9757058410738806,0.943941660268672,0.989874583956958,0.9794527300686975,0.9862223164568289,0.9494930196586367,0.9583243265228293,0.9777693611841557,0.9575596201873514,0.9855097951976212,0.8141522532764638
30_01,c1,oc,12026,0.9766705155755385,0.9297151684094616,0.9420624688692347,0.91698076593107,0.9698001312708782,0.9653715340087667,0.9697616492840249,0.971042406188238,0.9214244419191969,0.9700812927192484,0.9807235150094344,0.9455947881153806,0.9924021161139146,0.981663581035482,0.9876437432398696,0.9521452178522982,0.9575962381321531,0.9793374759652085,0.959417949676197,0.9846156117148401,0.8041888453902605
30_01,c1,oc,12091,0.9770300562225444,0.921973531492808,0.9368144128279163,0.9211676168664861,0.9651492656367033,0.9606163112741549,0.9643085640729521,0.9696310692203991,0.924774555084536,0.9691267751064455,0.9791038550673367,0.943160465477493,0.9914468554524138,0.9866856833835582,0.9910004045099455,0.9522315686541841,0.9526862059949277,0.9813180095703744,0.9594273449823292,0.9860791062428507,0.8062025462511742
30_01,c1,oc,12156,0.9781794039492953,0.9136486353127937,0.9292784726200013,0.9183512454961181,0.9581394465329002,0.9579084041275349,0.9610730493263255,0.9656717135162735,0.912334946350557,0.9725305756678153,0.9775266468998679,0.9493806229519154,0.9909717816110588,0.9873577605904106,0.9901735457617086,0.957699769506637,0.9541593210635235,0.9778648458871462,0.9627101840620116,0.9863478418721516,0.7873209759802033
30_01,c1,oc,12221,0.9742374549698115,0.9139391415310023,0.9355702699451475,0.9191741831969764,0.9481829750950391,0.9585136240548824,0.963952263371935,0.9604910410238665,0.9071403958462492,0.9779836124332565,0.978592141944269,0.9482412814162723,0.988912091158098,0.9881802540663759,0.9900432271263042,0.953567289037616,0.9577971133163921,0.9764412414533954,0.9670171193381897,0.9859625482529933,0.7802390885639047
30_01,c1,oc,12286,0.9696698577275081,0.9121920010247833,0.9420998674972143,0.9206449946464049,0.9462442637675604,0.9591120113530234,0.9658913801212473,0.9586360359563245,0.915962926295686,0.9796169829939173,0.9755896409059365,0.9472526390266387,0.988457062852665,0.9889995378951502,0.9896435503847567,0.9572526779713078,0.9559405960525871,0.9749944657402704,0.9730497487474506,0.9863224549915154,0.7771686347926496
30_01,c1,oc,12351,0.9681278812352799,0.903484970732339,0.944554391535931,0.9113385209233209,0.946271109792516,0.9609784568196851,0.9672172977275443,0.9556923975846909,0.9133110847148121,0.9813438399622262,0.9714815122391586,0.9495276681274527,0.9867902325631572,0.9883569353396912,0.9896877730468526,0.9579504418697653,0.9548377753631809,0.9785711261484933,0.9716397567342482,0.9867720304864276,0.7522551307557245
30_01,c1,oc,12416,0.9657049941437299,0.9051143613855432,0.9438206579437446,0.9123995891857782,0.9505579251055034,0.9593420999938985,0.9737352662700844,0.9614976525043015,0.9184352598628213,0.9845067563054006,0.9669101389891427,0.9487522839592786,0.9875808213529534,0.9875179966777977,0.9904629474779229,0.9562900620557643,0.9615943606338786,0.9806492939298268,0.9759952746847331,0.987631138661475,0.7771030757366135
30_01,c1,oc,12481,0.9668586738182006,0.9066371705172002,0.9477037905560589,0.9151287647479156,0.9538600346476741,0.9659453206148864,0.9805954354121891,0.963633717901605,0.9152262415411364,0.9827069835026304,0.9635597758038684,0.9516786985594908,0.9873794685350785,0.9859831120309612,0.9897617682766319,0.9580914338836297,0.9638508586837363,0.9768273974672365,0.9788262889415116,0.9840086846177921,0.798075615762503
30_01,c1,oc,12546,0.9645838829363444,0.9066136419961244,0.9460735532311123,0.9276142379779942,0.9641612045943436,0.9674896902871812,0.9853111804668605,0.9692016904559327,0.9131804625269186,0.9787020656977298,0.9659959945406158,0.9553601068453693,0.9839121190951983,0.9860287123094167,0.9896752244434635,0.9565873122614975,0.9658427148209193,0.9800193445083475,0.978663291288251,0.984234714886404,0.8188306183897247
30_01,c1,oc,12611,0.9566086280800614,0.8969279719788075,0.9470428699208662,0.9299092120173188,0.9638819945322925,0.9709373109176075,0.98640189555677,0.9720216345634831,0.9095883855561073,0.9802790503857535,0.9719363122135387,0.9600423375678886,0.9800569777438843,0.9803259138784383,0.9871008821965672,0.9673434742685743,0.9692017076604194,0.9777792013949652,0.9841204321865886,0.9877649562897741,0.83995714448684
30_01,c1,oc,12676,0.9584208664775445,0.8943050467027666,0.9441609593603234,0.937532203377137,0.9685642995101615,0.9739288063045664,0.9872062428161672,0.9757294820632301,0.9186438143140366,0.9849381610978515,0.9758189333887075,0.9625379475300303,0.981160434537483,0.9804783451528551,0.9833520846958934,0.9693051309154902,0.9751843674890117,0.9818552797691932,0.9862055864583682,0.9889142212550233,0.853706999562897
30_01,c1,oc,12741,0.9598101895653793,0.8971642800915626,0.9448262701588872,0.9387189777545442,0.9710302143085997,0.9758660042406628,0.9918375289543345,0.9736159944335632,0.9133018413387989,0.9849787074088364,0.9796201116560288,0.9666069106506032,0.9781835217830926,0.9818237176231618,0.9803455030550415,0.9728526387454747,0.9774599709752037,0.9830030898861285,0.9895159586767799,0.9887775321921188,0.8630011171769338
30_01,c1,oc,12806,0.9588554075949268,0.9006761254366368,0.9474062342609347,0.9453643819170506,0.973004128461725,0.9772428647068869,0.9917586863168277,0.9701414106239694,0.9113393660078017,0.9871281605210314,0.9815691279707015,0.9595458425487612,0.978932205295324,0.9862770413838384,0.9864392992556487,0.972557877866595,0.9821703885772097,0.9853009241924773,0.9911320750492542,0.9871013384705801,0.8685741093097165
30_01,c1,oc,12871,0.962286899412464,0.9085944962802897,0.9493968410861399,0.9424433317654921,0.9738051018891365,0.9775264952687415,0.9899386437185895,0.9704657163422773,0.911626446522718,0.9864138504123233,0.9818036399827806,0.9641530023424294,0.9787925724380264,0.9881280311353944,0.9875382988965206,0.9784410326708936,0.9839268083156023,0.9874199926299803,0.990817013280525,0.985644320433832,0.8725548844686528
30_01,c1,oc,12936,0.9670475793716273,0.9092984429317217,0.9438687848445843,0.9348417122895155,0.9757310413344615,0.9782344431672136,0.9887999041901718,0.9667095383009819,0.9139085325714101,0.9834011926876995,0.9812799626786297,0.9627746247823619,0.9808668134600539,0.9884913948206493,0.9874265540556116,0.9771522044266225,0.9822359621385888,0.9864176314728917,0.9908653617701662,0.9848077552556023,0.8831196065104556
30_01,c1,oc,13001,0.9676875049933645,0.9166668512080078,0.9397367354113091,0.9382228596067409,0.9698942915351301,0.9753019207321765,0.9862436411038706,0.9661585574479574,0.9181117358037774,0.9792345152315973,0.9823350473400886,0.9598903905323679,0.9814763074390589,0.9925547586833438,0.9900356810656086,0.9744598478855679,0.9800055672292279,0.9877074238594709,0.9934252827847637,0.9866317570307725,0.898667130674524
30_01,c1,oc,13066,0.9713647859298253,0.9221616720455951,0.9432952158957665,0.9391782124524605,0.9690333353881253,0.9746873363727593,0.9804479504961239,0.9643265491715632,0.9206658447347787,0.979244961511828,0.9841845742933254,0.9558750392395842,0.9859793755887587,0.9942278828395794,0.9923869405556598,0.976239509551515,0.979836067826498,0.9907860655339771,0.9940458010966917,0.9857236891918039,0.8898485344688779
30_01,c1,oc,13131,0.9719179978654697,0.9242260158694297,0.940511826245646,0.9387585688140061,0.9664096218600606,0.9672145084464658,0.977100665351272,0.9646020994819452,0.9230048934761204,0.9823551172688545,0.9869725411869451,0.9510589152329454,0.986911541578541,0.9959568920352435,0.9942503086581099,0.9777938418357,0.9792227809625873,0.9913045059267497,0.9920438553289838,0.9863256803800129,0.8877435623468957
30_01,c1,oc,13196,0.9739150753752589,0.9268905799786186,0.9378776050461859,0.9309865099621933,0.9542455912816744,0.9635345567720183,0.9730625245508432,0.9649916718496948,0.9270549096347704,0.9827715175859173,0.9871173796340814,0.9514950666968953,0.9900794149822282,0.9947011876467821,0.9936766954438444,0.9830227406227287,0.981165460455015,0.9921617115668928,0.9931609285494487,0.9842124310442913,0.8882119465126367
30_01,c1,oc,13261,0.9769170355012415,0.9239361444052786,0.9357011544987575,0.9286904675103833,0.9497577152302477,0.9551715463326539,0.9681888485926782,0.9592473540194505,0.9311785914339199,0.9822806880414603,0.9838192108488817,0.9501934634882951,0.9883722370563915,0.9968189689309559,0.9950024579068785,0.9805385499737062,0.9811255226669359,0.9900144436860697,0.9927075206980042,0.981153484758358,0.8903913172701293
30_01,c1,oc,13326,0.9748951897020477,0.931038549116855,0.9380926002873725,0.925258972307905,0.9388283099643586,0.9508992720669405,0.9666134316034197,0.9580880834756073,0.9273851392801751,0.9807939866822931,0.9785097451481539,0.9437383658172614,0.9891714286446025,0.9968194274003819,0.9948989575530834,0.978356545344542,0.9765838851927212,0.9894209360796066,0.9922888667431982,0.9793900497850503,0.8869220962505688
30_01,c1,oc,13391,0.9747726450136414,0.9378419175541428,0.9425562487237906,0.9208986662628451,0.9344567449299832,0.9495947354900626,0.9631476243338911,0.9583281969687472,0.932514540186638,0.9823963008968181,0.9800995188710022,0.9408391204922485,0.9885419955167695,0.9963481785564952,0.9944684676604254,0.9747463562862393,0.9772192120775571,0.9904087522270271,0.9926774903552272,0.979538500234199,0.882851252493929
30_01,c1,oc,13456,0.9755007494411466,0.9444565932267585,0.9361822678735514,0.9143306932332804,0.9315196269474902,0.948536997868497,0.9534101006055945,0.9583134566748344,0.9349811681299041,0.97719803518735,0.9737373607109873,0.9400349699870462,0.9872365351577816,0.9944561816357428,0.9915668462515451,0.9656099311389762,0.9653001979071449,0.9893797422646601,0.9896959614191319,0.9792263073509199,0.8843860410778376
30_01,c1,oc,13521,0.9747184626575879,0.9434017477572704,0.9294899276614569,0.920836281372388,0.9331307612633732,0.9484599323706289,0.9493629094734466,0.9557264615931853,0.9370460579603882,0.9770613023571715,0.9736692370515888,0.9327621874380841,0.986622898371023,0.9924322561012063,0.990637505231114,0.96055899808296,0.959918195625687,0.987825624451189,0.9905988417210334,0.9839577797384702,0.8855180844846096
30_01,c1,oc,13586,0.9711899330802735,0.9324218907274986,0.9231740086443598,0.9232048542727929,0.9144386177722094,0.9376453828476466,0.9480151616890128,0.9513889628346534,0.92801427558314,0.9803744797342021,0.9709859048967571,0.9230996322299402,0.9814612960515994,0.993923659614713,0.9922261817460818,0.9525460305110482,0.9522735885281609,0.9854579901578793,0.9874236490234516,0.9851782656713234,0.8737528230753195
30_01,c1,oc,13651,0.964813687239951,0.9272752456056289,0.93100133176695,0.9159392586726505,0.9067065429795457,0.9377147197346442,0.9456976438279603,0.9451890682673331,0.9309771650362874,0.984108777306237,0.9678895486081155,0.9215212339918937,0.9785568307047293,0.9933180431300354,0.99310635831003,0.9467670708231513,0.9425973325867909,0.9821950085941732,0.9849489861662223,0.9838545498997546,0.8510741922231775
30_01,c1,oc,13716,0.9622716530493488,0.914095053494546,0.923762541463865,0.9188752244196053,0.904017726493831,0.9338609112512641,0.9472151780318568,0.9392275457901237,0.9308955870482174,0.982977462249576,0.9668686288161116,0.9262064733146588,0.9744860936733036,0.9919936937130092,0.9942620952125695,0.9434303135969878,0.9371193012643829,0.9771240775933762,0.9825144480409544,0.9865395199259506,0.8517699013975197
30_01,c1,oc,13781,0.9609407375172335,0.9162885127038887,0.9264765844981103,0.9205415148347057,0.909908298152376,0.9411790979068408,0.9502900720761889,0.9386352111997589,0.9239990676725794,0.9858246719999942,0.9652322136822407,0.9242701486804571,0.9720262184529942,0.9897139127119965,0.9941236288852973,0.9381232325775414,0.9366653348932125,0.9731013097063795,0.980843446949654,0.9874158751100558,0.827505806691231
30_01,c1,oc,13846,0.9524285585409439,0.9133167812923022,0.928286251464233,0.9266119693333487,0.9148281759083459,0.9450856634301805,0.9593735674665802,0.9319487392842564,0.923523188046535,0.9876279273496611,0.9659520861988752,0.9232860269811973,0.9698071896190666,0.9914692384254524,0.9941124309780638,0.9302569024112608,0.9342767320884193,0.9693326998436982,0.9796079481182587,0.9897099888399027,0.8112533442475283
30_01,c1,oc,13911,0.9509601606363808,0.9113572415934301,0.9321480783004877,0.931298395753215,0.9239569727600478,0.9454548852294863,0.9575181945819277,0.9343224047621148,0.9162087094594685,0.9875411181362974,0.9697008994463447,0.9326081944949882,0.9715649083811335,0.9880602508008023,0.9946284485473709,0.937598628027866,0.9345256683256365,0.9676256771215768,0.9754073566056164,0.9891963299198323,0.8047077822181888
30_01,c1,oc,13976,0.9450778475250342,0.9087852093178844,0.9402269752226554,0.9333798197139989,0.9362558782682582,0.9490338733378377,0.9580921378231367,0.9341721732614264,0.9113644463617845,0.989010130067662,0.9701778928041083,0.9336635385451644,0.972382765444035,0.9847702947389623,0.9950372193579805,0.9381103727019459,0.9429273750502087,0.9641089359221313,0.969921837251163,0.9891246636156128,0.7931891334978188
30_01,c1,oc,14041,0.9408411294932563,0.9026040643286399,0.9396287004143427,0.9429337075614938,0.9432716966585049,0.9532377335700231,0.9610090222770548,0.9310309226476834,0.9080778593962859,0.9888883090853423,0.9720421419456123,0.9362501990010206,0.980420343199951,0.9847333597129178,0.9948660590808591,0.9500338066733738,0.9488563811879298,0.9623717576239889,0.9745639738938778,0.9860506719328672,0.7964634323748354
30_01,c1,oc,14106,0.9342887355346194,0.900432726229909,0.9460783627346367,0.9512538547344223,0.9494860128382093,0.9541393672631554,0.967012397443968,0.9302312646526297,0.9018584193316085,0.9913610464131,0.9730518336966482,0.9440996204539309,0.9816323605335299,0.9867332599639449,0.9941509135861296,0.9577945283559793,0.9558229149769665,0.9625000558112106,0.9779556091965482,0.9842713669836539,0.7806149484936957
30_01,c1,oc,14171,0.9289471679464518,0.8922400564597478,0.9531557887196107,0.9492301891303596,0.946915637891992,0.9588219261418807,0.969289117959841,0.9363513092212871,0.8927623567411531,0.9909515772769373,0.9692082451918842,0.9516182909962094,0.9778399685051398,0.9822122014334728,0.9918013346111002,0.9601852691532587,0.9582125284408348,0.9595985986537575,0.9733408817124579,0.9849619896146679,0.7737972522270951
30_01,c1,oc,14236,0.9255149559434194,0.8943048369863834,0.956347753341352,0.9495827763540251,0.959068890322953,0.9631335959652507,0.9694839358717964,0.946394192257595,0.8937488960050305,0.9907234386388505,0.9734262272651582,0.9560041297213204,0.9815627453234732,0.9786476149596869,0.9921819455671033,0.9679740655355387,0.9628735237275998,0.9582316124486833,0.9730112618647414,0.9846492375646942,0.7583372465372833
30_01,c1,oc,14301,0.9278800262144727,0.8915845581668019,0.9553336401692828,0.9561313575474589,0.9656654079508362,0.9584554218633927,0.972457884634612,0.9557581208052005,0.8836210870168296,0.9909643490519003,0.9804241402892669,0.9611379159864077,0.9814398667114524,0.9814754787002786,0.9906116073034411,0.9766782562622007,0.971850029769717,0.9671133251883733,0.9795028601292189,0.9848515678820059,0.7509354123726529
30_01,c1,oc,14366,0.9226870313798663,0.894556450783863,0.9517419361158029,0.9531497858365957,0.967964041469927,0.9591228241828921,0.9756764933051749,0.9567565648989809,0.8799609664522149,0.9892525142118782,0.9800968035574035,0.9636316012684637,0.9819335044513657,0.9821601187333826,0.9884633990354358,0.9795457750379977,0.9748857168678926,0.9632325233554816,0.9802971003768638,0.9825835426130961,0.7415831422847351
30_01,c1,oc,14431,0.9249857078990982,0.8884009541232893,0.9448666310389634,0.9491954904144998,0.9705669407896094,0.9594715877368915,0.9767667535277702,0.9561069867236159,0.8913552719010999,0.9872820602015359,0.9734647638847121,0.9639268082599196,0.9843186496352166,0.9827259722830517,0.985190145011259,0.9746208450468431,0.9743063801436279,0.9628293871172323,0.9775720889473479,0.9788047633887382,0.7451009497888496
30_01,c1,oc,14496,0.936067328129503,0.8931640113972665,0.9424604498978232,0.9471521078459746,0.971712968485985,0.9560624911383327,0.9793121914332885,0.9605186665503221,0.8872937607299404,0.9859170831849454,0.9686735695560337,0.9594929492426558,0.9811699096509839,0.9798676665954446,0.9791500764770705,0.9700160674303947,0.9693000633248923,0.9595318903232842,0.9772459944354747,0.9733751956990109,0.7503580328435693
30_01,c1,oc,14561,0.9370138930731793,0.8968768168302425,0.9373544153560063,0.9386720513126602,0.970432805517722,0.9558195288358714,0.9803484290725606,0.9553232161727071,0.8879836812979258,0.982612961955015,0.9562689927924614,0.9504290433448922,0.9733091920026379,0.9800230281178831,0.9765248254328758,0.9635923352949174,0.968672256053702,0.9546783638356207,0.9788319648846925,0.9663909736546467,0.7556615193984347
30_01,c1,oc,14626,0.9389548133325754,0.8957260776384839,0.9316276981695597,0.9305567391635013,0.9718227592882385,0.9556991207940163,0.978897058788956,0.9496765373227993,0.8919525087060979,0.9780763962521083,0.9507596049101107,0.9549721319061059,0.9645271779500739,0.9805074721739997,0.9710604463751875,0.9560239870921962,0.961374406595489,0.953221255418471,0.9745121584141818,0.9600181730200895,0.7457647480402518
30_01,c1,oc,14691,0.9417718491949907,0.8930626136843907,0.9247651484434084,0.9082571750386812,0.9701925165410075,0.9492731924753622,0.9716920690498115,0.9546485386733224,0.8853007613796443,0.96658731146437,0.9353639081548695,0.9508972337887558,0.9520557988558224,0.9754772050956059,0.966024783957166,0.9379423577128058,0.9450774208130892,0.9429077598235117,0.9664723025000785,0.9581283672461423,0.7498035136998809
30_01,c1,oc,14756,0.9380227086749471,0.8793637858242626,0.916742669479289,0.8938371007788376,0.9678957657157621,0.9492362493605394,0.9719913620117983,0.9611486293590711,0.8796474258659326,0.958683899474547,0.9389509031885341,0.9420049535921456,0.9548541719228634,0.9726447678990795,0.9667512472392189,0.9297854675746013,0.9354071674266198,0.9396430904362323,0.9615476740921279,0.960466958138778,0.7583858132601542
30_01,c1,oc,14821,0.9461621990586414,0.8786058949717584,0.8957957621254625,0.8857388215262301,0.9695315455123065,0.9413387941840031,0.967252385828593,0.9590322769347523,0.878630697351158,0.9556840206182665,0.9368478256305796,0.936496284145272,0.9575099603767567,0.9725542031913191,0.9684186271459291,0.9196031278659919,0.9323814976119638,0.9423760146356459,0.9587536054026828,0.9635634283955866,0.7540110406686305
30_01,c1,oc,14886,0.9563938519714258,0.8820244780182191,0.8936144896357239,0.8789934332517362,0.9693711365590937,0.9466943944831225,0.971507940908897,0.9592899397119704,0.8815385068380227,0.9554062580761988,0.9406704459490944,0.9313273757530871,0.9578813003995509,0.9747287127219827,0.9715532993435297,0.914137150397746,0.9267892758906026,0.9504017980563603,0.9612386490261708,0.9671093477332824,0.7820786957222797
30_01,c1,oc,14951,0.9601158630814215,0.8953530614150961,0.8999498041844,0.8887703301634209,0.9714135890333284,0.9542806137733866,0.9711157620470774,0.9545607165310633,0.8917346528092343,0.9576883544212398,0.9409569666493974,0.9357720223170395,0.9569436700990458,0.971967036810243,0.9673601636768133,0.9021512994622508,0.9219410640220006,0.9468083492377511,0.9516462672485829,0.96838385696539,0.7944387741376936
30_01,c1,oc,15016,0.9660853346046154,0.894685906485546,0.9047788447999154,0.8920979052030884,0.9730498690297672,0.9527576650022119,0.9648756077175319,0.9523952417785914,0.8944323386482831,0.9526559518524814,0.9445140202914942,0.9358393806131112,0.9503003178175466,0.9724597749806163,0.9686302803156044,0.8914275370820663,0.9170051709159852,0.9491715224970301,0.9461526046414704,0.9700050403567005,0.7906130096563129
30_01,c1,oc,15081,0.9615661191774354,0.8886924651835998,0.9077352667293928,0.8950487992382404,0.9670318345155344,0.9410894223279109,0.9601754683837231,0.9496556233277401,0.8888973695592651,0.9537571303899042,0.949474381343698,0.9264325896119517,0.9469004121941622,0.9746179935627055,0.972385365203681,0.8878679435749092,0.9088372794869568,0.9497489516521146,0.9420520811125145,0.9712546857252469,0.8000531320464066
30_01,c1,oc,15146,0.9523886516190786,0.8765915609062559,0.9026883885077791,0.884082509978372,0.9656800568260485,0.9320311527608407,0.948256747771743,0.9546070768494337,0.8791822716072778,0.9522104822437629,0.9520918582678086,0.9184205822747079,0.9553361594749045,0.978746536979713,0.9798235927017129,0.8969602959944938,0.9153197402149734,0.9500816204661995,0.9372931232977727,0.9759994052737138,0.7977482236927907
30_01,c1,oc,15211,0.950833655634888,0.8760105870759466,0.9106144538262938,0.8976141492865378,0.9661290210941156,0.9361026338280133,0.9485851296103509,0.96564679872845,0.8817592746075739,0.9624522262086613,0.9617065816609556,0.9292495467382273,0.9619921884037373,0.9808181068901641,0.9826130745567259,0.9053889083899456,0.9189677176911999,0.9595330303203132,0.9360006283511457,0.980438439480869,0.7911415665247916
30_01,c1,oc,15276,0.9517353776664351,0.8772514241047569,0.9124169997179742,0.9048830096025834,0.961772129371451,0.9293547312304773,0.946498849321285,0.9720059718684597,0.8888641384640072,0.9697286804795217,0.9696430470023689,0.9313974061326931,0.9671642167776315,0.9829552768894174,0.9871162804834701,0.9172512704262691,0.9268425211085077,0.9617322926847438,0.9428460003733902,0.9834727285794987,0.8014142239218167
30_01,c1,oc,15341,0.9486236692602094,0.880774129548731,0.9263675835755724,0.9163646199714313,0.9615141385811012,0.9280861069362504,0.9546146104345896,0.9681210258991108,0.8914912145124736,0.9799940798199583,0.975372029768753,0.9342940612309792,0.9670072586576238,0.982417659801008,0.9879566778077414,0.9215735740322675,0.9362890527526282,0.9658018503491148,0.9430462891582068,0.9847328615607098,0.8026862032759349
30_01,c1,oc,15406,0.9546254654742947,0.8953444617800487,0.9294790463040699,0.9154544051124137,0.9644578064641496,0.9304480891383731,0.9542390190365239,0.9650941000187327,0.9047035401262173,0.9814029867456835,0.9733390844150568,0.9428162552878258,0.9665660746565208,0.9774699544834906,0.9858970511062873,0.9261454650281127,0.9414981059259927,0.9629548244746614,0.9452245068649792,0.9856169960015527,0.8065557559246797
30_01,c1,oc,15471,0.9499464333320993,0.8933525306498991,0.9363752831723625,0.9187271474739898,0.9652213396823821,0.9311128762357431,0.9452131719957997,0.9577610543207445,0.9065625075298643,0.9824994053115105,0.9709109492024669,0.9482193640856353,0.9655818321554507,0.9729804522390698,0.9835984138480277,0.9327177520517205,0.9438671806370207,0.9566095539590775,0.9504943260060917,0.9825793149899366,0.8021701295230985
30_01,c1,oc,15536,0.9418180447007523,0.8972415804974367,0.9364319644039779,0.9154574192297847,0.9645476319632371,0.925779634800366,0.9468233316775678,0.9580370654321689,0.901386818711463,0.9792904272310718,0.9704296701855204,0.9506752591578337,0.9637657611007763,0.9705295019211017,0.9831443378208409,0.9249444026325826,0.9427063604993935,0.9556449059762501,0.9524551753312396,0.9837512680655873,0.7810838136265692
30_01,c1,oc,15601,0.9463463204718179,0.893149361332801,0.9276909790219913,0.9061371814027677,0.9604699615083071,0.9277615809619953,0.9472910714363388,0.9621720999249057,0.8895370177515636,0.9735594668035757,0.9674196144703642,0.9430993762987263,0.9607097205793459,0.964690411704525,0.9833778770765874,0.921134021904764,0.9408927489304395,0.9538265567464266,0.9459815205510108,0.9857691749816535,0.7867294421382888
30_01,c1,oc,15666,0.9475041235245004,0.9005650441970079,0.9271315786247774,0.9087209458124603,0.9593042435266618,0.9324590295496524,0.9521853320805972,0.9633236135355089,0.8942831659806317,0.9768853612461128,0.9662137344587951,0.9390555671536659,0.9599166108197901,0.9678642005351814,0.9849860179335282,0.9187191192453446,0.9402954038677286,0.959842846659641,0.9498014919702596,0.9865321758965936,0.7955536319317307
30_01,c1,oc,15731,0.9546949163451067,0.9064903289699754,0.9310518870600681,0.9106575035437589,0.9618108360294071,0.9454443919502566,0.9588218879312823,0.968141435390997,0.8950453209831565,0.9774789751806273,0.968247633567448,0.9439935222327956,0.9601049120702629,0.9647856845271511,0.9846545930070031,0.9227529027590597,0.9380393844734395,0.9591388025032956,0.9495387525131903,0.9879274567802059,0.8008014324875306
30_01,c1,oc,15796,0.9589431743429158,0.914483449942863,0.9301909772441496,0.9103212735900109,0.9656675540527524,0.9532012891069698,0.9606584537003359,0.9625137423145999,0.8988454708812089,0.9740388501958588,0.9607797626449162,0.942697798202464,0.9528901963963714,0.9591736114206064,0.9833650072391936,0.9111701636119478,0.9249442143779002,0.9608902340330817,0.9539629400084998,0.9878378094003778,0.8072940221719094
30_01,c1,oc,15861,0.9611771838388293,0.917319307070815,0.9233081072888987,0.8992359830477206,0.9570275575620523,0.951514448281613,0.9577722293233168,0.9486459413044328,0.8950190635161606,0.9658429942278639,0.9506329691103189,0.9291981813249935,0.9410822173278772,0.9534754375927227,0.9772395605842839,0.8972494456933946,0.9155710729628902,0.9566288637077355,0.9560541031409624,0.9851219502974468,0.8156618483391949
30_01,c1,oc,15926,0.9597440953594482,0.9135627365759084,0.9154232500207075,0.8880193553819129,0.9500726051970123,0.953325865109241,0.9538313012227865,0.9435532401990964,0.8837529535908265,0.9558353704765725,0.9382628397949735,0.9159565503074292,0.9324325843765703,0.9497076389080333,0.9712477305234881,0.8784003636239287,0.8993762783258878,0.9527068581847137,0.9469273026942443,0.9809153972672469,0.8235195652898898
30_01,c1,oc,15991,0.9576241280739068,0.9087611184131533,0.9040999906957556,0.879041256130848,0.9416297925585928,0.9470897994106792,0.947729237311138,0.9442030283585229,0.877214676045822,0.9486359090967772,0.9324648983432617,0.9140450278587311,0.9298024385027762,0.9518768976294625,0.970305523174606,0.870288853680188,0.9043451628844431,0.9521776854809332,0.943907538973113,0.9823290601650185,0.8136888040514317
30_01,c1,oc,16056,0.9596566104436398,0.9029266859597544,0.8962396306398107,0.8776369555579143,0.9321605304789283,0.9476308191852227,0.9399634922758896,0.935099289696125,0.8686041542340838,0.9461250266669418,0.9267248139853093,0.9044448181488863,0.9255314374164395,0.9606538119024363,0.97064630033711,0.8452156918219906,0.9024566242504347,0.9524940694131366,0.941254703086,0.9811848825801802,0.8333729545729178
30_01,c1,oc,16121,0.9597842834015562,0.9077671751410202,0.8970744652822333,0.8716657131546421,0.9295025973034292,0.9521708707678662,0.9400651045249911,0.9371502339751465,0.8612739963000764,0.9470576326701612,0.9286900629748444,0.8917754023398906,0.9303624088511552,0.9670439878120763,0.9764502398051194,0.8331645329432313,0.9032228563688197,0.9606206011428311,0.9358107909970068,0.9845418689132573,0.8466212429097814
30_01,c1,oc,16186,0.9596542824979235,0.9024293690488839,0.8958675783461993,0.8690197561778967,0.9153402696235586,0.9501436322712975,0.9289314349829317,0.9305443829526847,0.859160784092096,0.9493914866191682,0.9248949561899285,0.881727140373136,0.9265282970617498,0.9677526857946924,0.979437867345363,0.829061750796023,0.8993024483757349,0.9613083103319744,0.9385704635080641,0.9819997036462814,0.8608006549481884
30_01,c1,oc,16251,0.9582825902949637,0.9079809770419047,0.8954142174516222,0.8740096072581429,0.908458954048022,0.9546019645311103,0.9217949837850467,0.9193668963415867,0.8647168906701742,0.9543087321730129,0.9179931269076099,0.8840559510837158,0.9278028444309715,0.9684145935690905,0.9823303669007724,0.8288134874453437,0.8876409637927634,0.9600522454156853,0.9475324615479864,0.9789817504188484,0.8660101355479183
30_01,c1,oc,16316,0.9536994233385473,0.9112721458188057,0.893063371384719,0.8629769370020669,0.8942570145833684,0.9475728410431793,0.9050992939021154,0.9127207363371007,0.8640946540675563,0.9402911030431204,0.9109277960695349,0.8760634594072544,0.9231395125798678,0.9604391815736066,0.9813186853075934,0.8224162332559222,0.8757076216075803,0.953360100138217,0.9476839074589335,0.9777369166790743,0.8695646984568476
30_01,c1,oc,16381,0.9496129539893026,0.9079577044755517,0.8827699582285509,0.8586827501393103,0.8718634191033464,0.9401293712032456,0.888564138833679,0.8993330590865725,0.8724869855154597,0.9320657897598301,0.9012235275590604,0.8728511431062107,0.9211887934677537,0.9622433839758744,0.9810618951908399,0.8342685333874673,0.8789233768580634,0.9520323027368969,0.9496827891907439,0.973900769837987,0.875068219257569
30_01,c1,oc,16446,0.9509869106070765,0.9055108448894664,0.8886134962424672,0.8648661502772866,0.862465045535944,0.9372428124602722,0.8923507098855156,0.8919857506437179,0.8745908962043302,0.9336153288619197,0.9044213371229968,0.8861228859129047,0.9282273779596695,0.9656777130237579,0.9817601283230712,0.850580927847891,0.8924475607396388,0.9500019683508506,0.9491599929490163,0.9712675320171099,0.8867647000155451
30_01,c1,oc,16511,0.9501070971680813,0.8961427972401836,0.8840589147473298,0.8710310841041233,0.8746113031590844,0.9398997650842733,0.8968192224016642,0.9004884166619189,0.8674399678741084,0.9407216200161779,0.9125535816434175,0.8946154927643061,0.9407790773049115,0.974274606343624,0.984589008797395,0.8666248939239781,0.9018240978293567,0.9518473486006254,0.9480938633643604,0.9706296062631395,0.8880352234104761
30_01,c1,oc,16576,0.9570549181409582,0.8970959296001515,0.8973341117570423,0.8839840562778944,0.8857721595348577,0.9482334137880233,0.8999482251909457,0.9081346125562841,0.877120131753861,0.9497785383066218,0.9239228450070331,0.9009809245439093,0.9474402355009806,0.9790902567135779,0.9872124668985923,0.8801742826381896,0.9173997993489111,0.9549607097477388,0.9544036757337365,0.9736380942336261,0.8880215407136647
30_01,c1,oc,16641,0.9637749074685404,0.9017638032020612,0.8966291402340313,0.8821164956859123,0.8982984915276946,0.9547621899552367,0.8939998662898145,0.9158656405782593,0.8828941091880125,0.9531014501118001,0.9278329218823068,0.9058074362596906,0.9515658507670653,0.9806503463298485,0.9858277808271716,0.8885010332786298,0.9127762166880202,0.9568248109731345,0.9580610070643137,0.9734555726765779,0.8990412279665025
30_01,c1,oc,16706,0.9617959807547255,0.9037935464293776,0.9074020016248135,0.8841391667639436,0.9021529994918778,0.9514605007641561,0.8992235378594653,0.9190501959904793,0.8896153933068331,0.9488979005364389,0.9270533737013646,0.898353035502281,0.9522220575016886,0.9812669736906506,0.9846282103121125,0.8961445490612115,0.9207519859542641,0.9548650965678047,0.9562347879818716,0.9720168939545372,0.8816409974711716
30_01,c1,oc,16771,0.9640477081839767,0.8908076853676835,0.9080696630271538,0.8841307418588082,0.8941882597251017,0.9512686767656273,0.900640611123091,0.9183752841500922,0.8969931400964376,0.9468010669588117,0.9232410859316839,0.8895308252662795,0.9520261911925156,0.9816942300822894,0.9885226316328646,0.8910973105809904,0.9135499621271492,0.950402201683496,0.9550720970915335,0.9699266656530088,0.8757259797817752
30_01,c1,oc,16836,0.9696592156726062,0.8860864310017804,0.9102293589949615,0.8873174520333373,0.900754854271869,0.9492681962903813,0.9113110752003022,0.9274758719614857,0.8921101950926035,0.9473625732625753,0.9340646229136437,0.8961435305555998,0.9571286758865268,0.9815597080079618,0.9893673529231507,0.9014288946114895,0.9152365705223199,0.9491139501906173,0.9528630247472628,0.973950039942185,0.8792372622028903
30_01,c1,oc,16901,0.9703837673431274,0.8753931482577586,0.91498210803474,0.8865851001966515,0.9103998340485304,0.9481884162257774,0.9217443187568646,0.9348374410743312,0.883036599531417,0.948991581285729,0.9380048962290187,0.8927779298895142,0.9647395181962856,0.9843862690447504,0.9891733961931563,0.9065762978313903,0.918907014584601,0.9538672371985953,0.9460337519922946,0.9793888721815089,0.8777436086996984
30_01,c1,oc,16966,0.9716178942023918,0.881895662999132,0.9251745096908505,0.896371315378288,0.9263718575309617,0.9572730642695567,0.9337436919690936,0.9404115490188493,0.8829919974709001,0.9553878107380034,0.9452365167888057,0.9016682891422677,0.9750988992132997,0.9854323999508432,0.991595386308211,0.916180726096777,0.923556808921435,0.9529448098091835,0.9436793816032177,0.9834552425189828,0.879707849014001
30_01,c1,oc,17031,0.9709773416943315,0.8864235836349016,0.9281522106007869,0.8966353665877081,0.9346450215661029,0.9579627591565271,0.9388814609202402,0.946891515377629,0.8737781011720102,0.955896999125295,0.9462592986024819,0.9076479186034826,0.9743896231272707,0.985598930720151,0.9916164407453154,0.9135531604743838,0.9224592569679139,0.9528422792021298,0.9374545659649884,0.9874529177764493,0.882750103610367
30_01,c1,oc,17096,0.9669928801345453,0.8906208018333007,0.9251444239728832,0.9013583057969303,0.9452341850241387,0.9567135502186541,0.9410070083313751,0.9526191215913965,0.8694378445990568,0.9626483256951225,0.9532746839886491,0.9030470728846086,0.975655899133031,0.9878189183432247,0.9912154959158016,0.916274209520152,0.9168312165222792,0.9557834871412245,0.9369258880061109,0.9909532262074835,0.8821763567429832
30_01,c1,oc,17161,0.9692097334244654,0.8898715547305904,0.9283448587407993,0.8992785061979899,0.9469846457518302,0.9586180131151865,0.9403193308039675,0.9606150485919626,0.8819784821524838,0.9605866673486096,0.9501224069284772,0.9068091732235036,0.9755207349469327,0.9860774289746073,0.9903499568960265,0.9059511295385988,0.9116504204838368,0.9546605639093415,0.9428955302982214,0.9933789214289944,0.8838381950932264
30_01,c1,oc,17226,0.9650691742197617,0.8934942655374271,0.9282815593666035,0.892845037937146,0.945387889443785,0.9552167216031647,0.9405866864670155,0.9553681693458552,0.8789357602094902,0.9632164715779246,0.9505572990173774,0.9133796356256335,0.9775978538316794,0.986473222916312,0.9903979249748079,0.9088022084151332,0.9119418521205047,0.9562784079206477,0.9439683302763158,0.9941896883294368,0.8936172567640451
30_01,c1,oc,17291,0.9610236214961311,0.8908905656431362,0.9305926541253398,0.8966904407914995,0.9514043901818418,0.9613248020600563,0.9493566412314113,0.9556297720025013,0.8736261010562097,0.9662993003073654,0.9572791383243503,0.9148890568651336,0.981184928283553,0.9880809329628047,0.9886682159178867,0.9191225450887496,0.9178719557807843,0.9598745573817778,0.9462564073580945,0.9927019939919526,0.8868838528909326
30_01,c1,oc,17356,0.9587029652758565,0.894917423349535,0.9288947576840884,0.9067089794500468,0.95752954961861,0.9634340573660665,0.9549648828301261,0.9604383483097486,0.8697979333061094,0.9743539560523886,0.9661499968785967,0.9277058375159822,0.9824313507140445,0.9887607691335744,0.988091781393821,0.9218295459516497,0.914176358551257,0.962014431460287,0.9581969426918712,0.9927006214005571,0.8934614820563942
30_01,c1,oc,17421,0.9529432797157193,0.8976228747427498,0.9296546910732794,0.9137361190426619,0.96400664242394,0.9628785709662727,0.959964003529272,0.961700027578916,0.8663105323097449,0.9743187650827124,0.9682691059778853,0.9332275812692422,0.982932994597207,0.9859148906042668,0.9830899927468314,0.9316705981075161,0.9149429186691181,0.9613732291028604,0.9607688541518954,0.9926693060697684,0.8955424103012157
30_01,c1,oc,17486,0.9523382262841646,0.9011790756111596,0.9248810286482254,0.9190616984052161,0.9691237270634903,0.9646040252607746,0.9619897812386108,0.9579077255509891,0.8827886785034164,0.9761313062673485,0.9670133615526713,0.9331440944129689,0.9806750607472288,0.9858307943898363,0.9822677279355374,0.9322534041360898,0.918546814355751,0.9616968390463646,0.9654599979264886,0.9928241322120104,0.8903675223600219
30_01,c1,oc,17551,0.9443211308143254,0.9019914555379408,0.9226992017459418,0.9169718147293885,0.9697771506791574,0.9624219027990513,0.9633141771153446,0.9527314881800683,0.8851414421831417,0.9754682169245878,0.9665166841936668,0.9380060670694419,0.9782347629871287,0.9818938217882355,0.9795651860871697,0.9397676320964232,0.9155516405989217,0.9552681099849233,0.9713538231816928,0.9924325697428121,0.8816400352245984
30_01,c1,oc,17616,0.944736965294458,0.8959027032796032,0.9040362854288903,0.9090669443655519,0.9726367562994933,0.954517173637139,0.9627911399014286,0.9525170281102284,0.8852560349562398,0.9766616130311934,0.9642066200641798,0.9422715417995264,0.9703119846683163,0.9793477724745909,0.9780208693000647,0.9389182112814333,0.9169126217724181,0.9527032927918528,0.9741249203719671,0.9922992113665244,0.8803851524392603
30_01,c1,oc,17681,0.9439636679152431,0.9029067783529539,0.9065550433305982,0.9197593565792586,0.980262375071259,0.9579187867217401,0.9695232745025557,0.9611748772135751,0.8857631812128477,0.9761711667821245,0.9683650594824307,0.9514240306466109,0.9778886179898624,0.9769296361319743,0.9737356196510109,0.9540134544389017,0.9273297664902843,0.9507027945050718,0.9788076960736634,0.9896883873899768,0.8704491817281766
30_01,c1,oc,17746,0.9523483558516493,0.9069325917910933,0.9216534085281529,0.9202231538002312,0.980636438356697,0.9547019968701528,0.9698480420994534,0.9599249983735366,0.8946448139920482,0.9781794277536858,0.9686264764239221,0.9563524626443902,0.9734878605120529,0.976024996559087,0.9718425600392281,0.9573563129784254,0.9331897620500716,0.9482927771560888,0.9807749610286959,0.9862470750630441,0.854973181532509
30_01,c1,oc,17811,0.949507230371044,0.9135937469152156,0.9239922026859192,0.923973801583637,0.9826296943596892,0.9558004831060668,0.9721011700802888,0.9627128856375528,0.8916096995601817,0.9776922283233511,0.9665403709681175,0.9559890392704887,0.9736791976857019,0.9734569667624761,0.9702113762177985,0.9589768370151399,0.9408172177579146,0.9480351621925677,0.9783137087032823,0.9818749428790425,0.8385689230510608
30_01,c1,oc,17876,0.9469000929232738,0.9125276722629512,0.9248385621644224,0.9228763055051076,0.9848607544277376,0.9500899570765793,0.9716790311984845,0.9641719485760488,0.8909843813435808,0.9731183108596272,0.9604774757490258,0.952353910007938,0.9702806082546394,0.9659602947118823,0.9666637867959,0.9574776981934946,0.9322593730325905,0.9377787260796686,0.9721724625384734,0.9777214144679147,0.8316960536870496
30_01,c1,oc,17941,0.9437827442101637,0.9148473117915324,0.923208428313109,0.9282722585547218,0.9837424191226822,0.9457075796859145,0.9769664302919522,0.9635526526295037,0.8952703939405976,0.9673464531600235,0.9571551158819678,0.9555719138597399,0.9665064766335989,0.9637258763206336,0.9635820713472306,0.9562319066624616,0.928792787287605,0.9321905346459782,0.9698958715143801,0.9760559852403113,0.8222573295357817
30_01,c1,oc,18006,0.9460770766125233,0.9077148562380987,0.9119857089637748,0.9249377038388568,0.9849152032418939,0.9430831715229762,0.9756309134744049,0.9632691493293792,0.89652389689795,0.9635492284148152,0.955539436981501,0.9557851279202841,0.966927022935654,0.9590819545751325,0.9574772055446662,0.9637690584688199,0.9272161897836869,0.9259301484021782,0.9587122868244997,0.9735658125041166,0.8295129844122386
30_01,c1,oc,18071,0.9502723146412044,0.9118958665152931,0.9098262427577217,0.922320003742003,0.9842908345770214,0.9389373609417433,0.9755106499055297,0.9703709776927523,0.904249961266581,0.9636857824316675,0.9543293437613204,0.9618171040572155,0.9709003490271346,0.9647185066421595,0.9577177079197413,0.968552092869133,0.9370343364918986,0.9305734080726002,0.959805775525301,0.9721233382541645,0.8202606745090901
30_01,c1,oc,18136,0.9539650445972574,0.911049318441055,0.9084260637523114,0.9141797052136205,0.9831058424275904,0.9392838039871664,0.9754277041085956,0.9749749093350745,0.8959956294902017,0.9573423836493434,0.9480020436936355,0.9557537876549678,0.9761977550012739,0.9615700074582124,0.9569560932812121,0.9664124691901149,0.934021751233931,0.9330757509083545,0.9558195826572726,0.9715176611365521,0.7903438650939053
30_01,c1,oc,18201,0.9573477790917035,0.9138244648881924,0.9115598678616603,0.9099831491660912,0.9813987717917372,0.9461441935889414,0.9752054352640589,0.9703521493932531,0.8995286107327636,0.952990083143022,0.9438617503062258,0.9507303464735926,0.9753560019212677,0.9661836916513589,0.9612256698990199,0.9621108138027382,0.934980623339755,0.9409683576183772,0.9541691470782968,0.9744385754774695,0.7881243420698019
30_01,c1,oc,18266,0.9590898390766774,0.9103918517155501,0.9132302798505963,0.9080667010856102,0.9758207442499633,0.9520528393008179,0.9743229029490605,0.9700101457724505,0.8999135444702692,0.9430682304023111,0.9440485370379983,0.9463965502060319,0.9757186964817203,0.9626397596177964,0.9639260836916657,0.9576709205099789,0.9308768437796314,0.943906453998737,0.9497429892352799,0.9760362914950559,0.7888167577543304
30_01,c1,oc,18331,0.9655799962582832,0.9039639487119558,0.9070551951278287,0.9018079256354558,0.974207438304243,0.9582631966650124,0.9712505904024578,0.9626322987053305,0.9071130375621862,0.9424273112071245,0.9435235008974848,0.945082615643556,0.9752344196826196,0.9647593086704993,0.9694192700041191,0.9501615447608359,0.9292128397757963,0.9478774184896633,0.9515402747992582,0.9798463301849343,0.7778539319684015
30_01,c1,oc,18396,0.9711664746405455,0.9035700341051928,0.8987091432220712,0.9038653289989816,0.9754688143532697,0.9632948429026301,0.9708839528804097,0.9673941754830809,0.904725044684375,0.9434734194207619,0.9470368011213331,0.9391766717161153,0.974017218230314,0.9677875097921277,0.9718183762657803,0.9452433650402384,0.9298102441753949,0.9516459169788247,0.9504093582683006,0.9834882023246103,0.7955314351084346
30_01,c1,oc,18461,0.9758518320379355,0.9042753377844334,0.9037659881705944,0.9019467791613082,0.9758536590471522,0.9658013744342824,0.9704042105780594,0.9634288907235453,0.9111948072767289,0.9482634323627078,0.9534666363845813,0.9457411153387152,0.9752492839201069,0.9704215617071584,0.9753546840900766,0.942672573031551,0.925000109766328,0.9548118638713344,0.9520752477397083,0.9860572774895133,0.788473249089062
30_01,c1,oc,18526,0.9777958830411885,0.9064064851831254,0.902749400646511,0.9129857875498336,0.9779941402431376,0.9675695866892791,0.9724951311898582,0.9636108957884613,0.9117053575083867,0.9474188902614622,0.9669355120124412,0.9489654493127656,0.979071573527501,0.9760057204475734,0.9827254477396794,0.9462325746643091,0.9403682693990832,0.9672948183252206,0.9609819082542306,0.9885561801503744,0.7683361669960092
30_01,c1,oc,18591,0.9821129839419884,0.9205006904015274,0.9075211129102924,0.9148478470366016,0.9765771011656429,0.9714124543093376,0.969242994251693,0.9660754768156716,0.9234959326664005,0.9589017764702955,0.9722437924888935,0.9444574512100917,0.9792347002538132,0.9761044887700446,0.9829777574466945,0.9488085459329723,0.9433809581392709,0.9735606408535465,0.9641197582541545,0.987789429227918,0.7768492745960476
30_01,c1,oc,18656,0.9813441554011226,0.9221001109877213,0.9141587853932326,0.906360258121701,0.9741367422257209,0.9717243069457648,0.9671625550096838,0.9602780840048593,0.9168006981112856,0.9601159057569965,0.9694659299103835,0.9424502285443179,0.9830461035324186,0.980416592379738,0.9856357920523178,0.9380950292376098,0.9439435876243236,0.9765770970198119,0.9679488522650129,0.9884598071241999,0.7507834313373819
30_01,c1,oc,18721,0.9826379670410341,0.9286852749828732,0.9207839746037562,0.9139918365504475,0.9773988225082544,0.9740796278413669,0.9641889465617638,0.9621102361882968,0.9172802702266195,0.9636687889688249,0.9728195047481066,0.946606193797325,0.9837769844527299,0.9811140602608953,0.9875055785562433,0.9347348882573928,0.9428213630281123,0.9746368138178686,0.9628867569962369,0.9882176521971541,0.7573513720656706
